TITLE;
DATA TYPE;INFRARED SPECTRUM
ORIGIN;JASCO
OWNER;
DATE;25/03/19
TIME;14:40:10
SPECTROMETER/DATA SYSTEM;
LOCALE;9226
RESOLUTION;
DELTAX;0,964233
XUNITS;1/CM
YUNITS;ABSORBANCE
FIRSTX;  399,1927
LASTX; 4000,6047
NPOINTS;    3736
FIRSTY;     0,24766
MAXY;     0,30941
MINY;    -0,00398
XYDATA
399,1927;0,247657
400,1569;0,246232
401,1211;0,2449
402,0854;0,243724
403,0496;0,24281
404,0138;0,242268
404,9781;0,242155
405,9423;0,24242
406,9065;0,242904
407,8708;0,243404
408,8350;0,243764
409,7992;0,243936
410,7635;0,243997
411,7277;0,244115
412,6919;0,244472
413,6562;0,245171
414,6204;0,246172
415,5846;0,247266
416,5489;0,248083
417,5131;0,248198
418,4773;0,247504
419,4416;0,246607
420,4058;0,246423
421,3700;0,247294
422,3343;0,248867
423,2985;0,250533
424,2627;0,251778
425,2270;0,252357
426,1912;0,252356
427,1554;0,252079
428,1197;0,251802
429,0839;0,251588
430,0481;0,251297
431,0124;0,250749
431,9766;0,249918
432,9408;0,249
433,9051;0,248315
434,8693;0,248092
435,8335;0,24829
436,7978;0,248586
437,7620;0,248566
438,7262;0,247968
439,6905;0,246821
440,6547;0,245405
441,6189;0,244102
442,5832;0,243198
443,5474;0,242737
444,5116;0,242535
445,4759;0,242355
446,4401;0,242079
447,4043;0,241737
448,3686;0,24142
449,3328;0,24118
450,2970;0,24102
451,2613;0,240943
452,2255;0,241
453,1897;0,241267
454,1540;0,241752
455,1182;0,242312
456,0824;0,242659
457,0467;0,242491
458,0109;0,241726
458,9751;0,240614
459,9394;0,239559
460,9036;0,238817
461,8678;0,238388
462,8321;0,238131
463,7963;0,237925
464,7605;0,237754
465,7248;0,237685
466,6890;0,23777
467,6532;0,237969
468,6175;0,238153
469,5817;0,23819
470,5459;0,238038
471,5102;0,237779
472,4744;0,237576
473,4386;0,237561
474,4029;0,237748
475,3671;0,238058
476,3313;0,238379
477,2956;0,238623
478,2598;0,238726
479,2240;0,238651
480,1883;0,238397
481,1525;0,238009
482,1167;0,237595
483,0810;0,237302
484,0452;0,237263
485,0094;0,237537
485,9737;0,238072
486,9379;0,238741
487,9021;0,239408
488,8664;0,239984
489,8306;0,240433
490,7948;0,240758
491,7591;0,240968
492,7233;0,241063
493,6875;0,241034
494,6518;0,240891
495,6160;0,240688
496,5802;0,240531
497,5445;0,240549
498,5087;0,240836
499,4729;0,241404
500,4372;0,242149
501,4014;0,242875
502,3656;0,243388
503,3299;0,243604
504,2941;0,243595
505,2583;0,243533
506,2226;0,243589
507,1868;0,243855
508,1510;0,244323
509,1153;0,244913
510,0795;0,245544
511,0437;0,246175
512,0080;0,246814
512,9722;0,247491
513,9365;0,248226
514,9007;0,249004
515,8649;0,249771
516,8292;0,250438
517,7934;0,250903
518,7576;0,251099
519,7219;0,251024
520,6861;0,250753
521,6503;0,250408
522,6146;0,250112
523,5788;0,249962
524,5430;0,249993
525,5073;0,250158
526,4715;0,250341
527,4357;0,250424
528,4000;0,250353
529,3642;0,250153
530,3284;0,24989
531,2927;0,249608
532,2569;0,249283
533,2211;0,248836
534,1854;0,248182
535,1496;0,247311
536,1138;0,246321
537,0781;0,245389
538,0423;0,244693
539,0065;0,244327
539,9708;0,244275
540,9350;0,244439
541,8992;0,244714
542,8635;0,245031
543,8277;0,245367
544,7919;0,245715
545,7562;0,246053
546,7204;0,246346
547,6846;0,24657
548,6489;0,246744
549,6131;0,246926
550,5773;0,247178
551,5416;0,247533
552,5058;0,247967
553,4700;0,248419
554,4343;0,248812
555,3985;0,249076
556,3627;0,249159
557,3270;0,249018
558,2912;0,248626
559,2554;0,247977
560,2197;0,247095
561,1839;0,24604
562,1481;0,2449
563,1124;0,243768
564,0766;0,242721
565,0408;0,241801
566,0051;0,241015
566,9693;0,240341
567,9335;0,239749
568,8978;0,239212
569,8620;0,238713
570,8262;0,23825
571,7905;0,237821
572,7547;0,237427
573,7189;0,237064
574,6832;0,236725
575,6474;0,236406
576,6116;0,236098
577,5759;0,235796
578,5401;0,23549
579,5043;0,23517
580,4686;0,234826
581,4328;0,234448
582,3970;0,234026
583,3613;0,233556
584,3255;0,233052
585,2897;0,232551
586,2540;0,232115
587,2182;0,231807
588,1824;0,23167
589,1467;0,231694
590,1109;0,231813
591,0751;0,231915
592,0394;0,231886
593,0036;0,231657
593,9678;0,231233
594,9321;0,230677
595,8963;0,230071
596,8605;0,229479
597,8248;0,228936
598,7890;0,22844
599,7532;0,227976
600,7175;0,227519
601,6817;0,227048
602,6459;0,226546
603,6102;0,226004
604,5744;0,22543
605,5386;0,224843
606,5029;0,224259
607,4671;0,223673
608,4313;0,223047
609,3956;0,222322
610,3598;0,221466
611,3240;0,220515
612,2883;0,219585
613,2525;0,218822
614,2167;0,218312
615,1810;0,218002
616,1452;0,217675
617,1094;0,21703
618,0737;0,215845
619,0379;0,214115
620,0021;0,212065
620,9664;0,210024
621,9306;0,208274
622,8948;0,206946
623,8591;0,206002
624,8233;0,20522
625,7875;0,204527
626,7518;0,203791
627,7160;0,202973
628,6802;0,202103
629,6445;0,201248
630,6087;0,200456
631,5729;0,199748
632,5372;0,199112
633,5014;0,198518
634,4656;0,197943
635,4299;0,197383
636,3941;0,19686
637,3583;0,196405
638,3226;0,196035
639,2868;0,195734
640,2510;0,195461
641,2153;0,195166
642,1795;0,194824
643,1437;0,194458
644,1080;0,194121
645,0722;0,193863
646,0364;0,193694
647,0007;0,193565
647,9649;0,1934
648,9291;0,193141
649,8934;0,192791
650,8576;0,19242
651,8218;0,192135
652,7861;0,192023
653,7503;0,192117
654,7145;0,192376
655,6788;0,192708
656,6430;0,193006
657,6072;0,193207
658,5715;0,193299
659,5357;0,193294
660,4999;0,193164
661,4642;0,192799
662,4284;0,192021
663,3926;0,190656
664,3569;0,188677
665,3211;0,186411
666,2853;0,184644
667,2496;0,184222
668,2138;0,184981
669,1780;0,185678
670,1423;0,185678
671,1065;0,185143
672,0707;0,184121
673,0350;0,182555
673,9992;0,180566
674,9634;0,178432
675,9277;0,176418
676,8919;0,17462
677,8561;0,172981
678,8204;0,171397
679,7846;0,169834
680,7488;0,168334
681,7131;0,166968
682,6773;0,165764
683,6415;0,164706
684,6058;0,163748
685,5700;0,162855
686,5342;0,162013
687,4985;0,161224
688,4627;0,160506
689,4269;0,159854
690,3912;0,159259
691,3554;0,158703
692,3196;0,158156
693,2839;0,157587
694,2481;0,156982
695,2123;0,156349
696,1766;0,15572
697,1408;0,155124
698,1050;0,154569
699,0693;0,154031
700,0335;0,153478
700,9977;0,152884
701,9620;0,152249
702,9262;0,151592
703,8904;0,150908
704,8547;0,150205
705,8189;0,149472
706,7831;0,148697
707,7474;0,14788
708,7116;0,147042
709,6758;0,146205
710,6401;0,145376
711,6043;0,144534
712,5685;0,143644
713,5328;0,142695
714,4970;0,14173
715,4612;0,139598
716,4255;0,139107
717,3897;0,13886
718,3539;0,138675
719,3182;0,138255
720,2824;0,137348
721,2466;0,135898
722,2109;0,13409
723,1751;0,132229
724,1393;0,130575
725,1036;0,129232
726,0678;0,128146
727,0320;0,127183
727,9963;0,126227
728,9605;0,125239
729,9247;0,124251
730,8890;0,123321
731,8532;0,12249
732,8174;0,121763
733,7817;0,121115
734,7459;0,120518
735,7101;0,119953
736,6744;0,119416
737,6386;0,118913
738,6028;0,118448
739,5671;0,118021
740,5313;0,117615
741,4955;0,117201
742,4598;0,116746
743,4240;0,116226
744,3882;0,115643
745,3525;0,115022
746,3167;0,114398
747,2809;0,113793
748,2452;0,113211
749,2094;0,112638
750,1736;0,112059
751,1379;0,11147
752,1021;0,110886
753,0663;0,110321
754,0306;0,109781
754,9948;0,109251
755,9590;0,108707
756,9233;0,108132
757,8875;0,107532
758,8517;0,106936
759,8160;0,106376
760,7802;0,10587
761,7444;0,105409
762,7087;0,104959
763,6729;0,104485
764,6371;0,103966
765,6014;0,103409
766,5656;0,102844
767,5298;0,102302
768,4941;0,101804
769,4583;0,101345
770,4225;0,100902
771,3868;0,100446
772,3510;0,0999578
773,3152;0,0994348
774,2795;0,0988901
775,2437;0,0983452
776,2079;0,0978191
777,1722;0,097322
778,1364;0,0968531
779,1006;0,0964034
780,0649;0,0959603
781,0291;0,0955124
781,9933;0,0950524
782,9576;0,0945788
783,9218;0,0940967
784,8860;0,0936178
785,8503;0,0931586
786,8145;0,092736
787,7787;0,0923605
788,7430;0,0920308
789,7072;0,0917331
790,6714;0,0914469
791,6357;0,0911543
792,5999;0,0908483
793,5641;0,0905336
794,5284;0,0902208
795,4926;0,0899177
796,4568;0,0896247
797,4211;0,0893367
798,3853;0,0890489
799,3495;0,0887618
800,3138;0,0884805
801,2780;0,0882105
802,2422;0,0879535
803,2065;0,0877066
804,1707;0,0874658
805,1349;0,0872286
806,0992;0,0869955
807,0634;0,0867687
808,0276;0,0865502
808,9919;0,0863428
809,9561;0,0861505
810,9203;0,0859777
811,8846;0,0858258
812,8488;0,0856894
813,8130;0,0855569
814,7773;0,0854154
815,7415;0,0852587
816,7057;0,0850922
817,6700;0,0849312
818,6342;0,0847926
819,5984;0,0846851
820,5627;0,084605
821,5269;0,0845386
822,4911;0,0844713
823,4554;0,0843969
824,4196;0,0843207
825,3839;0,0842555
826,3481;0,0842113
827,3123;0,0841862
828,2766;0,0841638
829,2408;0,0841186
830,2050;0,0840282
831,1693;0,0838825
832,1335;0,0836869
833,0977;0,0834564
834,0620;0,0832052
835,0262;0,0829397
835,9904;0,0826589
836,9547;0,0823609
837,9189;0,0820499
838,8831;0,0817375
839,8474;0,0814383
840,8116;0,0811623
841,7758;0,0809116
842,7401;0,0806831
843,7043;0,0804742
844,6685;0,0802862
845,6328;0,0801233
846,5970;0,079987
847,5612;0,0798715
848,5255;0,0797649
849,4897;0,0796542
850,4539;0,0795328
851,4182;0,0794036
852,3824;0,0792777
853,3466;0,079169
854,3109;0,0790878
855,2751;0,0790371
856,2393;0,0790113
857,2036;0,0789993
858,1678;0,0789889
859,1320;0,0789711
860,0963;0,078943
861,0605;0,078907
862,0247;0,0788669
862,9890;0,0788253
863,9532;0,078783
864,9174;0,0787422
865,8817;0,0787107
866,8459;0,0787021
867,8101;0,0787312
868,7744;0,0788062
869,7386;0,0789223
870,7028;0,0790619
871,6671;0,0792003
872,6313;0,079314
873,5955;0,0793888
874,5598;0,0794233
875,5240;0,0794295
876,4882;0,0794306
877,4525;0,0794552
878,4167;0,0795313
879,3809;0,079679
880,3452;0,0799086
881,3094;0,0802226
882,2736;0,0806233
883,2379;0,0811175
884,2021;0,0817175
885,1663;0,0824348
886,1306;0,0832729
887,0948;0,084223
888,0590;0,0852649
889,0233;0,0863717
889,9875;0,0875121
890,9517;0,0886504
891,9160;0,0897471
892,8802;0,0907607
893,8444;0,0916542
894,8087;0,0924011
895,7729;0,0929862
896,7371;0,0934014
897,7014;0,0936394
898,6656;0,0936916
899,6298;0,0935533
900,5941;0,0932317
901,5583;0,0927537
902,5225;0,0921649
903,4868;0,0915222
904,4510;0,0908819
905,4152;0,0902907
906,3795;0,0897803
907,3437;0,0893677
908,3079;0,089058
909,2722;0,0888492
910,2364;0,0887369
911,2007;0,0887166
912,1649;0,0887852
913,1292;0,08894
914,0934;0,089178
915,0576;0,0894941
916,0219;0,0898815
916,9861;0,0903301
917,9503;0,0908258
918,9146;0,0913508
919,8788;0,0918844
920,8430;0,0924065
921,8073;0,0929007
922,7715;0,0933563
923,7357;0,0937667
924,7000;0,0941284
925,6642;0,0944395
926,6284;0,0947004
927,5927;0,0949151
928,5569;0,09509
929,5211;0,0952333
930,4854;0,0953527
931,4496;0,0954568
932,4138;0,0955574
933,3781;0,095671
934,3423;0,0958166
935,3065;0,0960113
936,2708;0,0962651
937,2350;0,0965803
938,1992;0,0969548
939,1635;0,0973884
940,1277;0,0978876
941,0919;0,0984661
942,0562;0,0991417
943,0204;0,0999312
943,9846;0,100846
944,9489;0,101887
945,9131;0,103046
946,8773;0,104307
947,8416;0,10565
948,8058;0,107061
949,7700;0,108539
950,7343;0,110095
951,6985;0,111748
952,6627;0,113521
953,6270;0,115427
954,5912;0,117469
955,5554;0,119637
956,5197;0,12191
957,4839;0,124261
958,4481;0,126659
959,4124;0,129083
960,3766;0,131524
961,3408;0,133989
962,3051;0,136492
963,2693;0,139047
964,2335;0,141659
965,1978;0,144318
966,1620;0,147018
967,1262;0,149757
968,0905;0,152556
969,0547;0,155449
970,0189;0,15848
970,9832;0,161689
971,9474;0,16511
972,9116;0,168771
973,8759;0,172693
974,8401;0,176901
975,8043;0,18141
976,7686;0,186221
977,7328;0,191309
978,6970;0,196614
979,6613;0,202044
980,6255;0,207473
981,5897;0,212763
982,5540;0,217778
983,5182;0,22241
984,4824;0,226593
985,4467;0,230309
986,4109;0,233584
987,3751;0,236469
988,3394;0,239024
989,3036;0,2413
990,2678;0,24333
991,2321;0,245132
992,1963;0,246715
993,1605;0,248089
994,1248;0,24927
995,0890;0,250288
996,0532;0,251175
997,0175;0,251962
997,9817;0,252673
998,9459;0,253325
999,9102;0,253938
1000,8744;0,254549
1001,8386;0,255218
1002,8029;0,256027
1003,7671;0,257062
1004,7313;0,25839
1005,6956;0,260047
1006,6598;0,262034
1007,6240;0,264327
1008,5883;0,266895
1009,5525;0,26971
1010,5167;0,272743
1011,4810;0,275952
1012,4452;0,279266
1013,4094;0,28259
1014,3737;0,285807
1015,3379;0,288812
1016,3021;0,291529
1017,2664;0,293926
1018,2306;0,296012
1019,1948;0,297825
1020,1591;0,299422
1021,1233;0,30086
1022,0875;0,30219
1023,0518;0,303447
1024,0160;0,304648
1024,9802;0,305785
1025,9445;0,306836
1026,9087;0,307768
1027,8729;0,308542
1028,8372;0,309111
1029,8014;0,309412
1030,7656;0,309358
1031,7299;0,308848
1032,6941;0,307788
1033,6583;0,306132
1034,6226;0,303912
1035,5868;0,301248
1036,5510;0,298327
1037,5153;0,295368
1038,4795;0,292571
1039,4437;0,290093
1040,4080;0,288029
1041,3722;0,286413
1042,3364;0,285221
1043,3007;0,284379
1044,2649;0,283775
1045,2291;0,283275
1046,1934;0,282753
1047,1576;0,282105
1048,1218;0,281254
1049,0861;0,28015
1050,0503;0,278749
1051,0145;0,277022
1051,9788;0,274954
1052,9430;0,27256
1053,9072;0,269884
1054,8715;0,266977
1055,8357;0,263866
1056,7999;0,260536
1057,7642;0,256931
1058,7284;0,252986
1059,6926;0,24867
1060,6569;0,244019
1061,6211;0,239143
1062,5853;0,234207
1063,5496;0,229395
1064,5138;0,224872
1065,4780;0,220757
1066,4423;0,217102
1067,4065;0,213892
1068,3707;0,211055
1069,3350;0,208481
1070,2992;0,206052
1071,2634;0,203665
1072,2277;0,201245
1073,1919;0,198748
1074,1561;0,19615
1075,1204;0,193439
1076,0846;0,190612
1077,0488;0,187682
1078,0131;0,184687
1078,9773;0,181694
1079,9415;0,178788
1080,9058;0,176055
1081,8700;0,173561
1082,8342;0,171334
1083,7985;0,16937
1084,7627;0,167642
1085,7269;0,166123
1086,6912;0,164796
1087,6554;0,163656
1088,6196;0,162705
1089,5839;0,161942
1090,5481;0,161357
1091,5123;0,160936
1092,4766;0,160665
1093,4408;0,160537
1094,4050;0,160549
1095,3693;0,160698
1096,3335;0,160974
1097,2977;0,161356
1098,2620;0,161811
1099,2262;0,162296
1100,1904;0,162769
1101,1547;0,163184
1102,1189;0,1635
1103,0831;0,163679
1104,0474;0,163698
1105,0116;0,163554
1105,9758;0,163264
1106,9401;0,162859
1107,9043;0,162366
1108,8685;0,161783
1109,8328;0,161073
1110,7970;0,16017
1111,7612;0,159008
1112,7255;0,157561
1113,6897;0,155861
1114,6539;0,154006
1115,6182;0,152122
1116,5824;0,150326
1117,5466;0,148688
1118,5109;0,147215
1119,4751;0,145859
1120,4393;0,144536
1121,4036;0,14315
1122,3678;0,141615
1123,3320;0,139861
1124,2963;0,137847
1125,2605;0,13556
1126,2247;0,133024
1127,1890;0,13029
1128,1532;0,127427
1129,1174;0,124507
1130,0817;0,121593
1131,0459;0,118736
1132,0101;0,115975
1132,9744;0,113346
1133,9386;0,110885
1134,9028;0,108634
1135,8671;0,106638
1136,8313;0,104933
1137,7955;0,10355
1138,7598;0,102499
1139,7240;0,101774
1140,6882;0,10135
1141,6525;0,101187
1142,6167;0,101239
1143,5809;0,10146
1144,5452;0,10181
1145,5094;0,102261
1146,4736;0,102794
1147,4379;0,1034
1148,4021;0,104074
1149,3663;0,104807
1150,3306;0,105583
1151,2948;0,106371
1152,2590;0,107131
1153,2233;0,107818
1154,1875;0,108379
1155,1517;0,108766
1156,1160;0,108925
1157,0802;0,108799
1158,0444;0,108327
1159,0087;0,107443
1159,9729;0,106083
1160,9371;0,104199
1161,9014;0,101766
1162,8656;0,0988039
1163,8298;0,0953775
1164,7941;0,0915995
1165,7583;0,0876164
1166,7225;0,0835882
1167,6868;0,0796651
1168,6510;0,0759677
1169,6152;0,0725765
1170,5795;0,06953
1171,5437;0,0668323
1172,5079;0,0644646
1173,4722;0,0623974
1174,4364;0,0606003
1175,4006;0,0590461
1176,3649;0,0577117
1177,3291;0,0565758
1178,2933;0,0556162
1179,2576;0,05481
1180,2218;0,0541349
1181,1860;0,0535734
1182,1503;0,0531143
1183,1145;0,0527525
1184,0787;0,0524872
1185,0430;0,0523192
1186,0072;0,0522495
1186,9714;0,0522803
1187,9357;0,0524148
1188,8999;0,0526568
1189,8641;0,0530088
1190,8284;0,0534703
1191,7926;0,0540383
1192,7568;0,0547078
1193,7211;0,0554738
1194,6853;0,0563302
1195,6495;0,0572674
1196,6138;0,0582694
1197,5780;0,0593151
1198,5422;0,0603812
1199,5065;0,0612046
1200,4707;0,0622885
1201,4349;0,0633562
1202,3992;0,0644038
1203,3634;0,0654269
1204,3276;0,0664195
1205,2919;0,0673754
1206,2561;0,0682932
1207,2203;0,0691803
1208,1846;0,0700547
1209,1488;0,0709442
1210,1130;0,0718812
1211,0773;0,0728955
1212,0415;0,0740072
1213,0057;0,0752214
1213,9700;0,0765272
1214,9342;0,0779019
1215,8984;0,0793177
1216,8627;0,0807459
1217,8269;0,0821601
1218,7911;0,0835405
1219,7554;0,0848728
1220,7196;0,0861473
1221,6838;0,0873589
1222,6481;0,0885054
1223,6123;0,0895858
1224,5765;0,0905993
1225,5408;0,0915445
1226,5050;0,0924207
1227,4692;0,093229
1228,4335;0,0939725
1229,3977;0,0946538
1230,3619;0,0952725
1231,3262;0,0958233
1232,2904;0,096298
1233,2546;0,0966891
1234,2189;0,096995
1235,1831;0,0972227
1236,1473;0,0973858
1237,1116;0,0975001
1238,0758;0,0975774
1239,0400;0,0976216
1240,0043;0,0976292
1240,9685;0,097592
1241,9327;0,0975005
1242,8970;0,0973463
1243,8612;0,0971223
1244,8254;0,0968222
1245,7897;0,0964429
1246,7539;0,0959879
1247,7181;0,0954704
1248,6824;0,0949125
1249,6466;0,0943398
1250,6108;0,093774
1251,5751;0,0932278
1252,5393;0,0927043
1253,5035;0,0922012
1254,4678;0,0917141
1255,4320;0,0912373
1256,3962;0,0907607
1257,3605;0,0902682
1258,3247;0,0897392
1259,2889;0,0891561
1260,2532;0,0885104
1261,2174;0,0878052
1262,1816;0,0870507
1263,1459;0,086257
1264,1101;0,0854302
1265,0743;0,0845725
1266,0386;0,083685
1267,0028;0,0827691
1267,9670;0,0818244
1268,9313;0,080846
1269,8955;0,0798256
1270,8597;0,078757
1271,8240;0,0776429
1272,7882;0,0765001
1273,7524;0,0753567
1274,7167;0,0742441
1275,6809;0,0731873
1276,6451;0,0721969
1277,6094;0,0712661
1278,5736;0,0703744
1279,5378;0,0694964
1280,5021;0,0686135
1281,4663;0,0677239
1282,4305;0,0668431
1283,3948;0,0659974
1284,3590;0,0652127
1285,3232;0,0645056
1286,2875;0,0638803
1287,2517;0,0633328
1288,2159;0,0628568
1289,1802;0,0624489
1290,1444;0,0621101
1291,1086;0,061844
1292,0729;0,0616558
1293,0371;0,0615511
1294,0013;0,0615359
1294,9656;0,0616145
1295,9298;0,0617875
1296,8940;0,0620505
1297,8583;0,0623963
1298,8225;0,0628189
1299,7867;0,0633163
1300,7510;0,0638897
1301,7152;0,0645426
1302,6794;0,0652726
1303,6437;0,06607
1304,6079;0,0669211
1305,5721;0,0678117
1306,5364;0,0687312
1307,5006;0,0696745
1308,4648;0,0706404
1309,4291;0,0716263
1310,3933;0,0726227
1311,3575;0,0736087
1312,3218;0,0745532
1313,2860;0,0754196
1314,2502;0,0761728
1315,2145;0,0767819
1316,1787;0,0772198
1317,1429;0,077465
1318,1072;0,0775111
1319,0714;0,0773787
1320,0356;0,0771187
1320,9999;0,0767979
1321,9641;0,0764755
1322,9283;0,0761869
1323,8926;0,0759435
1324,8568;0,075744
1325,8210;0,0755838
1326,7853;0,0754595
1327,7495;0,0753651
1328,7137;0,075288
1329,6780;0,0752066
1330,6422;0,0750968
1331,6064;0,0749408
1332,5707;0,074733
1333,5349;0,0744805
1334,4991;0,0741923
1335,4634;0,0738643
1336,4276;0,0734687
1337,3918;0,0729532
1338,3561;0,072265
1339,3203;0,0714002
1340,2845;0,0704365
1341,2488;0,0694982
1342,2130;0,0686829
1343,1772;0,0680253
1344,1415;0,0675153
1345,1057;0,0671307
1346,0699;0,0668576
1347,0342;0,0666937
1347,9984;0,0666464
1348,9626;0,0667243
1349,9269;0,0669292
1350,8911;0,0672488
1351,8553;0,0676585
1352,8196;0,0681303
1353,7838;0,0686437
1354,7480;0,0691929
1355,7123;0,0697842
1356,6765;0,0704265
1357,6407;0,0711232
1358,6050;0,0718725
1359,5692;0,0726678
1360,5334;0,0734858
1361,4977;0,0742727
1362,4619;0,0749659
1363,4261;0,0755445
