TITLE;
DATA TYPE;INFRARED SPECTRUM
ORIGIN;JASCO
OWNER;
DATE;25/03/19
TIME;14:37:55
SPECTROMETER/DATA SYSTEM;
LOCALE;9226
RESOLUTION;
DELTAX;0,964233
XUNITS;1/CM
YUNITS;ABSORBANCE
FIRSTX;  399,1927
LASTX; 4000,6047
NPOINTS;    3736
FIRSTY;     0,24856
MAXY;     0,27036
MINY;    -0,00322
XYDATA
399,1927;0,248564
400,1569;0,244539
401,1211;0,241015
402,0854;0,238039
403,0496;0,235616
404,0138;0,233767
404,9781;0,232527
405,9423;0,231895
406,9065;0,231756
407,8708;0,231845
408,8350;0,231803
409,7992;0,231338
410,7635;0,230421
411,7277;0,22939
412,6919;0,228801
413,6562;0,229114
414,6204;0,230457
415,5846;0,232573
416,5489;0,23482
417,5131;0,236224
418,4773;0,235924
419,4416;0,234063
420,4058;0,231878
421,3700;0,230456
422,3343;0,230001
423,2985;0,230167
424,2627;0,230534
425,2270;0,230833
426,1912;0,231
427,1554;0,231117
428,1197;0,231294
429,0839;0,231564
430,0481;0,231852
431,0124;0,232012
431,9766;0,231903
432,9408;0,231478
433,9051;0,230823
434,8693;0,230137
435,8335;0,229621
436,7978;0,229365
437,7620;0,229299
438,7262;0,229267
439,6905;0,229165
440,6547;0,229014
441,6189;0,228919
442,5832;0,228912
443,5474;0,228819
444,5116;0,228316
445,4759;0,22718
446,4401;0,225505
447,4043;0,223703
448,3686;0,222282
449,3328;0,221585
450,2970;0,221623
451,2613;0,222097
452,2255;0,222597
453,1897;0,222835
454,1540;0,222757
455,1182;0,222493
456,0824;0,222232
457,0467;0,222129
458,0109;0,222255
458,9751;0,222596
459,9394;0,223068
460,9036;0,22354
461,8678;0,223868
462,8321;0,223932
463,7963;0,223691
464,7605;0,223221
465,7248;0,222696
466,6890;0,222289
467,6532;0,222065
468,6175;0,221947
469,5817;0,221782
470,5459;0,221451
471,5102;0,22096
472,4744;0,220446
473,4386;0,220083
474,4029;0,219959
475,3671;0,220033
476,3313;0,220186
477,2956;0,220291
478,2598;0,220256
479,2240;0,220037
480,1883;0,219652
481,1525;0,219178
482,1167;0,218745
483,0810;0,2185
484,0452;0,218554
485,0094;0,218924
485,9737;0,219522
486,9379;0,220196
487,9021;0,220809
488,8664;0,221274
489,8306;0,221557
490,7948;0,221654
491,7591;0,221583
492,7233;0,221381
493,6875;0,22111
494,6518;0,220852
495,6160;0,220686
496,5802;0,220666
497,5445;0,220806
498,5087;0,221087
499,4729;0,221468
500,4372;0,2219
501,4014;0,222328
502,3656;0,222685
503,3299;0,222903
504,2941;0,222946
505,2583;0,222838
506,2226;0,222677
507,1868;0,222611
508,1510;0,222777
509,1153;0,22323
510,0795;0,223917
511,0437;0,224702
512,0080;0,225448
512,9722;0,22608
513,9365;0,226597
514,9007;0,227042
515,8649;0,227452
516,8292;0,227814
517,7934;0,228068
518,7576;0,228147
519,7219;0,228033
520,6861;0,227777
521,6503;0,227473
522,6146;0,227229
523,5788;0,227136
524,5430;0,227242
525,5073;0,227522
526,4715;0,227867
527,4357;0,228109
528,4000;0,228101
529,3642;0,227771
530,3284;0,227141
531,2927;0,226306
532,2569;0,225405
533,2211;0,224579
534,1854;0,223938
535,1496;0,22353
536,1138;0,22334
537,0781;0,223298
538,0423;0,223303
539,0065;0,223264
539,9708;0,223136
540,9350;0,222945
541,8992;0,222781
542,8635;0,222759
543,8277;0,222955
544,7919;0,223365
545,7562;0,223895
546,7204;0,224399
547,6846;0,224756
548,6489;0,224923
549,6131;0,224954
550,5773;0,22496
551,5416;0,225047
552,5058;0,225271
553,4700;0,225623
554,4343;0,226042
555,3985;0,226439
556,3627;0,226714
557,3270;0,226767
558,2912;0,226507
559,2554;0,225874
560,2197;0,224866
561,1839;0,223561
562,1481;0,222099
563,1124;0,220641
564,0766;0,219306
565,0408;0,218136
566,0051;0,217111
566,9693;0,216192
567,9335;0,215361
568,8978;0,214634
569,8620;0,214035
570,8262;0,213562
571,7905;0,213177
572,7547;0,212831
573,7189;0,212497
574,6832;0,212182
575,6474;0,211918
576,6116;0,211718
577,5759;0,211556
578,5401;0,211373
579,5043;0,211109
580,4686;0,210739
581,4328;0,21028
582,3970;0,209777
583,3613;0,209286
584,3255;0,208851
585,2897;0,20851
586,2540;0,208295
587,2182;0,208231
588,1824;0,20832
589,1467;0,208519
590,1109;0,208745
591,0751;0,208887
592,0394;0,208852
593,0036;0,208603
593,9678;0,208173
594,9321;0,207633
595,8963;0,207061
596,8605;0,206512
597,8248;0,206018
598,7890;0,205596
599,7532;0,20525
600,7175;0,204968
601,6817;0,204713
602,6459;0,20443
603,6102;0,204072
604,5744;0,203622
605,5386;0,203102
606,5029;0,202551
607,4671;0,201984
608,4313;0,201375
609,3956;0,200676
610,3598;0,199874
611,3240;0,199034
612,2883;0,198293
613,2525;0,19778
614,2167;0,197513
615,1810;0,197344
616,1452;0,196988
617,1094;0,196163
618,0737;0,194761
619,0379;0,192921
620,0021;0,190952
620,9664;0,189161
621,9306;0,18772
622,8948;0,186633
623,8591;0,18579
624,8233;0,184986
625,7875;0,184238
626,7518;0,183512
627,7160;0,182816
628,6802;0,182159
629,6445;0,181534
630,6087;0,180921
631,5729;0,180305
632,5372;0,179685
633,5014;0,179071
634,4656;0,178481
635,4299;0,177933
636,3941;0,177445
637,3583;0,177034
638,3226;0,17671
639,2868;0,176464
640,2510;0,176266
641,2153;0,176071
642,1795;0,175833
643,1437;0,175528
644,1080;0,17516
645,0722;0,174759
646,0364;0,174364
647,0007;0,174018
647,9649;0,173752
648,9291;0,173581
649,8934;0,173496
650,8576;0,173466
651,8218;0,173455
652,7861;0,173445
653,7503;0,173451
654,7145;0,173505
655,6788;0,173628
656,6430;0,173805
657,6072;0,173994
658,5715;0,174142
659,5357;0,174206
660,4999;0,174128
661,4642;0,173818
662,4284;0,173132
663,3926;0,17191
664,3569;0,17011
665,3211;0,168018
666,2853;0,166361
667,2496;0,165929
668,2138;0,166564
669,1780;0,16714
670,1423;0,16714
671,1065;0,166728
672,0707;0,165895
673,0350;0,164532
673,9992;0,162722
674,9634;0,160715
675,9277;0,158757
676,8919;0,156961
677,8561;0,155316
678,8204;0,153779
679,7846;0,152356
680,7488;0,151088
681,7131;0,15
682,6773;0,149062
683,6415;0,148212
684,6058;0,147403
685,5700;0,146628
686,5342;0,145897
687,4985;0,145208
688,4627;0,144542
689,4269;0,143857
690,3912;0,143146
691,3554;0,142446
692,3196;0,141817
693,2839;0,141294
694,2481;0,14087
695,2123;0,140493
696,1766;0,140103
697,1408;0,139653
698,1050;0,139134
699,0693;0,13856
700,0335;0,137958
700,9977;0,137343
701,9620;0,136719
702,9262;0,136083
703,8904;0,135415
704,8547;0,134727
705,8189;0,134036
706,7831;0,133352
707,7474;0,132673
708,7116;0,131984
709,6758;0,131257
710,6401;0,130471
711,6043;0,129615
712,5685;0,128705
713,5328;0,127788
714,4970;0,126932
715,4612;0,124962
716,4255;0,124629
717,3897;0,124474
718,3539;0,124291
719,3182;0,123818
720,2824;0,122867
721,2466;0,12144
722,2109;0,11973
723,1751;0,118003
724,1393;0,116466
725,1036;0,115188
726,0678;0,114124
727,0320;0,113175
727,9963;0,112263
728,9605;0,111361
729,9247;0,110489
730,8890;0,109678
731,8532;0,108951
732,8174;0,108305
733,7817;0,107725
734,7459;0,107192
735,7101;0,10669
736,6744;0,106212
737,6386;0,105754
738,6028;0,105318
739,5671;0,104901
740,5313;0,104492
741,4955;0,104072
742,4598;0,103616
743,4240;0,103108
744,3882;0,102547
745,3525;0,101947
746,3167;0,101333
747,2809;0,10073
748,2452;0,100159
749,2094;0,0996248
750,1736;0,0991253
751,1379;0,0986477
752,1021;0,0981741
753,0663;0,0976865
754,0306;0,0971726
754,9948;0,0966305
755,9590;0,0960687
756,9233;0,0955013
757,8875;0,0949409
758,8517;0,0943938
759,8160;0,0938603
760,7802;0,0933385
761,7444;0,0928285
762,7087;0,0923331
763,6729;0,0918555
764,6371;0,0913972
765,6014;0,0909592
766,5656;0,0905445
767,5298;0,0901599
768,4941;0,0898116
769,4583;0,0894968
770,4225;0,0891968
771,3868;0,0888796
772,3510;0,088512
773,3152;0,0880776
774,2795;0,0875872
775,2437;0,0870749
776,2079;0,0865813
777,1722;0,0861326
778,1364;0,085729
779,1006;0,0853482
780,0649;0,0849614
781,0291;0,0845519
781,9933;0,0841233
782,9576;0,0836968
783,9218;0,083298
784,8860;0,0829434
785,8503;0,0826332
786,8145;0,0823532
787,7787;0,082083
788,7430;0,0818048
789,7072;0,0815105
790,6714;0,081203
791,6357;0,0808936
792,5999;0,0805963
793,5641;0,0803205
794,5284;0,0800659
795,4926;0,0798218
796,4568;0,0795718
797,4211;0,0793036
798,3853;0,0790182
799,3495;0,0787317
800,3138;0,0784686
801,2780;0,0782481
802,2422;0,0780726
803,2065;0,077925
804,1707;0,077777
805,1349;0,0776049
806,0992;0,0774007
807,0634;0,0771731
808,0276;0,0769395
808,9919;0,0767127
809,9561;0,076495
810,9203;0,0762806
811,8846;0,0760655
812,8488;0,0758561
813,8130;0,0756689
814,7773;0,0755215
815,7415;0,0754205
816,7057;0,0753547
817,6700;0,0752998
818,6342;0,0752314
819,5984;0,0751385
820,5627;0,0750275
821,5269;0,0749156
822,4911;0,0748173
823,4554;0,0747345
824,4196;0,0746564
825,3839;0,0745673
826,3481;0,0744572
827,3123;0,0743258
828,2766;0,0741787
829,2408;0,0740209
830,2050;0,0738528
831,1693;0,0736714
832,1335;0,0734755
833,0977;0,0732672
834,0620;0,0730508
835,0262;0,0728286
835,9904;0,0725992
836,9547;0,0723592
837,9189;0,0721075
838,8831;0,0718462
839,8474;0,0715788
840,8116;0,071308
841,7758;0,0710358
842,7401;0,0707666
843,7043;0,0705104
844,6685;0,0702808
845,6328;0,070088
846,5970;0,0699323
847,5612;0,069803
848,5255;0,0696851
849,4897;0,0695691
850,4539;0,0694555
851,4182;0,0693516
852,3824;0,0692629
853,3466;0,0691867
854,3109;0,0691132
855,2751;0,0690332
856,2393;0,0689458
857,2036;0,0688598
858,1678;0,0687882
859,1320;0,0687411
860,0963;0,0687204
861,0605;0,0687212
862,0247;0,0687356
862,9890;0,0687569
863,9532;0,0687814
864,9174;0,0688097
865,8817;0,0688474
866,8459;0,0689065
867,8101;0,0690043
868,7744;0,0691587
869,7386;0,0693805
870,7028;0,0696656
871,6671;0,0699912
872,6313;0,0703185
873,5955;0,0706027
874,5598;0,0708065
875,5240;0,070914
876,4882;0,0709386
877,4525;0,0709217
878,4167;0,0709202
879,3809;0,070989
880,3452;0,0711649
881,3094;0,071461
882,2736;0,0718725
883,2379;0,0723891
884,2021;0,073005
885,1663;0,0737202
886,1306;0,0745338
887,0948;0,0754369
888,0590;0,0764102
889,0233;0,0774277
889,9875;0,0784627
890,9517;0,0794893
891,9160;0,0804799
892,8802;0,081402
893,8444;0,0822192
894,8087;0,0828979
895,7729;0,0834147
896,7371;0,0837589
897,7014;0,08393
898,6656;0,0839317
899,6298;0,0837697
900,5941;0,0834548
901,5583;0,0830078
902,5225;0,0824616
903,4868;0,0818585
904,4510;0,0812434
905,4152;0,0806566
906,3795;0,0801311
907,3437;0,0796907
908,3079;0,0793508
909,2722;0,0791173
910,2364;0,0789867
911,2007;0,0789474
912,1649;0,0789826
913,1292;0,0790749
914,0934;0,079212
915,0576;0,0793894
916,0219;0,079612
916,9861;0,0798902
917,9503;0,0802327
918,9146;0,0806374
919,8788;0,0810862
920,8430;0,0815467
921,8073;0,0819835
922,7715;0,0823704
923,7357;0,0827005
924,7000;0,0829853
925,6642;0,0832462
926,6284;0,0835035
927,5927;0,0837695
928,5569;0,0840474
929,5211;0,0843341
930,4854;0,0846232
931,4496;0,0849077
932,4138;0,0851816
933,3781;0,0854441
934,3423;0,0857045
935,3065;0,0859838
936,2708;0,0863112
937,2350;0,0867137
938,1992;0,0872066
939,1635;0,0877875
940,1277;0,0884414
941,0919;0,0891524
942,0562;0,0899154
943,0204;0,0907424
943,9846;0,0916564
944,9489;0,0926784
945,9131;0,093813
946,8773;0,0950436
947,8416;0,0963396
948,8058;0,097672
949,7700;0,0990305
950,7343;0,10043
951,6985;0,101903
952,6627;0,103487
953,6270;0,105201
954,5912;0,107046
955,5554;0,109001
956,5197;0,111035
957,4839;0,113125
958,4481;0,115258
959,4124;0,117431
960,3766;0,119645
961,3408;0,121895
962,3051;0,124166
963,2693;0,126436
964,2335;0,128688
965,1978;0,130924
966,1620;0,133167
967,1262;0,135461
968,0905;0,137852
969,0547;0,140376
970,0189;0,143047
970,9832;0,145868
971,9474;0,148844
972,9116;0,151994
973,8759;0,155356
974,8401;0,158964
975,8043;0,162836
976,7686;0,166954
977,7328;0,171266
978,6970;0,175699
979,6613;0,180171
980,6255;0,184598
981,5897;0,188889
982,5540;0,192946
983,5182;0,196674
984,4824;0,200003
985,4467;0,202913
986,4109;0,205442
987,3751;0,207672
988,3394;0,209698
989,3036;0,211591
990,2678;0,213374
991,2321;0,215033
992,1963;0,216535
993,1605;0,217862
994,1248;0,219022
995,0890;0,220046
996,0532;0,220975
997,0175;0,221839
997,9817;0,222651
998,9459;0,223411
999,9102;0,224126
1000,8744;0,224823
1001,8386;0,225554
1002,8029;0,226384
1003,7671;0,227378
1004,7313;0,228585
1005,6956;0,230029
1006,6598;0,231721
1007,6240;0,233661
1008,5883;0,23585
1009,5525;0,238286
1010,5167;0,240944
1011,4810;0,243766
1012,4452;0,246661
1013,4094;0,249514
1014,3737;0,252213
1015,3379;0,254673
1016,3021;0,256848
1017,2664;0,258732
1018,2306;0,260348
1019,1948;0,261735
1020,1591;0,262947
1021,1233;0,264039
1022,0875;0,265059
1023,0518;0,266037
1024,0160;0,266978
1024,9802;0,267865
1025,9445;0,268666
1026,9087;0,26935
1027,8729;0,269886
1028,8372;0,27024
1029,8014;0,270365
1030,7656;0,270188
1031,7299;0,26962
1032,6941;0,268578
1033,6583;0,267015
1034,6226;0,264949
1035,5868;0,262476
1036,5510;0,259758
1037,5153;0,256999
1038,4795;0,2544
1039,4437;0,252129
1040,4080;0,250291
1041,3722;0,248923
1042,3364;0,247996
1043,3007;0,247426
1044,2649;0,247099
1045,2291;0,246892
1046,1934;0,246696
1047,1576;0,246426
1048,1218;0,246024
1049,0861;0,245448
1050,0503;0,244654
1051,0145;0,243598
1051,9788;0,242239
1052,9430;0,240563
1053,9072;0,238585
1054,8715;0,236342
1055,8357;0,233866
1056,7999;0,231152
1057,7642;0,228157
1058,7284;0,22482
1059,6926;0,221115
1060,6569;0,217081
1061,6211;0,212837
1062,5853;0,208551
1063,5496;0,204394
1064,5138;0,200499
1065,4780;0,196937
1066,4423;0,19372
1067,4065;0,190821
1068,3707;0,18819
1069,3350;0,185772
1070,2992;0,183508
1071,2634;0,181336
1072,2277;0,179193
1073,1919;0,177012
1074,1561;0,174738
1075,1204;0,172333
1076,0846;0,169791
1077,0488;0,167142
1078,0131;0,16445
1078,9773;0,161799
1079,9415;0,159271
1080,9058;0,156936
1081,8700;0,154833
1082,8342;0,152977
1083,7985;0,151361
1084,7627;0,149971
1085,7269;0,14879
1086,6912;0,147799
1087,6554;0,146984
1088,6196;0,146326
1089,5839;0,14581
1090,5481;0,145421
1091,5123;0,14515
1092,4766;0,144995
1093,4408;0,144958
1094,4050;0,145041
1095,3693;0,14524
1096,3335;0,145539
1097,2977;0,14591
1098,2620;0,146318
1099,2262;0,146726
1100,1904;0,147101
1101,1547;0,147413
1102,1189;0,147633
1103,0831;0,147737
1104,0474;0,147709
1105,0116;0,147549
1105,9758;0,147276
1106,9401;0,146916
1107,9043;0,146485
1108,8685;0,145968
1109,8328;0,145315
1110,7970;0,144449
1111,7612;0,143299
1112,7255;0,14184
1113,6897;0,140113
1114,6539;0,138219
1115,6182;0,136289
1116,5824;0,134438
1117,5466;0,132739
1118,5109;0,131202
1119,4751;0,129791
1120,4393;0,128436
1121,4036;0,127057
1122,3678;0,125572
1123,3320;0,123913
1124,2963;0,122032
1125,2605;0,119914
1126,2247;0,117582
1127,1890;0,115093
1128,1532;0,112522
1129,1174;0,109939
1130,0817;0,107396
1131,0459;0,104922
1132,0101;0,102528
1132,9744;0,100231
1133,9386;0,0980553
1134,9028;0,0960462
1135,8671;0,0942574
1136,8313;0,0927408
1137,7955;0,0915327
1138,7598;0,0906457
1139,7240;0,0900667
1140,6882;0,0897626
1141,6525;0,0896883
1142,6167;0,0897972
1143,5809;0,0900489
1144,5452;0,0904131
1145,5094;0,09087
1146,4736;0,0914078
1147,4379;0,0920191
1148,4021;0,092697
1149,3663;0,0934326
1150,3306;0,0942114
1151,2948;0,0950121
1152,2590;0,0958041
1153,2233;0,096548
1154,1875;0,0971974
1155,1517;0,0977016
1156,1160;0,098008
1157,0802;0,0980628
1158,0444;0,0978097
1159,0087;0,0971884
1159,9729;0,0961368
1160,9371;0,0945996
1161,9014;0,0925433
1162,8656;0,0899735
1163,8298;0,0869466
1164,7941;0,08357
1165,7583;0,0799875
1166,7225;0,0763552
1167,6868;0,072815
1168,6510;0,0694765
1169,6152;0,0664085
1170,5795;0,0636431
1171,5437;0,0611854
1172,5079;0,059024
1173,4722;0,0571384
1174,4364;0,0555033
1175,4006;0,0540916
1176,3649;0,0528765
1177,3291;0,0518344
1178,2933;0,0509458
1179,2576;0,0501941
1180,2218;0,0495638
1181,1860;0,0490393
1182,1503;0,0486061
1183,1145;0,0482545
1184,0787;0,0479824
1185,0430;0,0477964
1186,0072;0,0477075
1186,9714;0,0477261
1187,9357;0,0478579
1188,8999;0,0481016
1189,8641;0,0484506
1190,8284;0,0488963
1191,7926;0,0494305
1192,7568;0,0500471
1193,7211;0,0507417
1194,6853;0,0515097
1195,6495;0,0523442
1196,6138;0,053234
1197,5780;0,0541626
1198,5422;0,0551102
1199,5065;0,0558403
1200,4707;0,0567941
1201,4349;0,0577203
1202,3992;0,058612
1203,3634;0,0594652
1204,3276;0,0602769
1205,2919;0,0610448
1206,2561;0,0617697
1207,2203;0,0624592
1208,1846;0,0631301
1209,1488;0,0638083
1210,1130;0,0645252
1211,0773;0,0653111
1212,0415;0,0661887
1213,0057;0,0671673
1213,9700;0,0682417
1214,9342;0,0693944
1215,8984;0,0706009
1216,8627;0,0718346
1217,8269;0,0730704
1218,7911;0,0742901
1219,7554;0,0754815
1220,7196;0,0766362
1221,6838;0,0777473
1222,6481;0,0788068
1223,6123;0,0798057
1224,5765;0,0807361
1225,5408;0,0815943
1226,5050;0,0823832
1227,4692;0,0831116
1228,4335;0,0837895
1229,3977;0,084422
1230,3619;0,0850045
1231,3262;0,0855237
1232,2904;0,0859627
1233,2546;0,0863101
1234,2189;0,0865654
1235,1831;0,0867407
1236,1473;0,0868553
1237,1116;0,0869283
1238,0758;0,0869716
1239,0400;0,0869872
1240,0043;0,0869691
1240,9685;0,0869077
1241,9327;0,0867949
1242,8970;0,0866261
1243,8612;0,0863997
1244,8254;0,0861155
1245,7897;0,0857734
1246,7539;0,0853747
1247,7181;0,0849256
1248,6824;0,0844385
1249,6466;0,0839317
1250,6108;0,0834244
1251,5751;0,0829322
1252,5393;0,0824634
1253,5035;0,0820191
1254,4678;0,0815951
1255,4320;0,0811839
1256,3962;0,0807746
1257,3605;0,0803523
1258,3247;0,0798994
1259,2889;0,0793996
1260,2532;0,0788428
1261,2174;0,0782287
1262,1816;0,0775652
1263,1459;0,0768638
1264,1101;0,0761342
1265,0743;0,0753826
1266,0386;0,0746119
1267,0028;0,0738217
1267,9670;0,0730095
1268,9313;0,0721703
1269,8955;0,071299
1270,8597;0,0703935
1271,8240;0,0694589
1272,7882;0,0685094
1273,7524;0,067566
1274,7167;0,0666515
1275,6809;0,0657839
1276,6451;0,0649705
1277,6094;0,0642047
1278,5736;0,0634681
1279,5378;0,0627374
1280,5021;0,0619955
1281,4663;0,0612406
1282,4305;0,0604878
1283,3948;0,0597628
1284,3590;0,059091
1285,3232;0,0584886
1286,2875;0,0579604
1287,2517;0,0575022
1288,2159;0,0571067
1289,1802;0,0567669
1290,1444;0,0564776
1291,1086;0,0562362
1292,0729;0,0560444
1293,0371;0,0559109
1294,0013;0,055851
1294,9656;0,0558822
1295,9298;0,0560161
1296,8940;0,0562521
1297,8583;0,0565785
1298,8225;0,0569784
1299,7867;0,0574383
1300,7510;0,0579526
1301,7152;0,0585242
1302,6794;0,0591558
1303,6437;0,0598464
1304,6079;0,0605913
1305,5721;0,0613836
1306,5364;0,0622162
1307,5006;0,0630824
1308,4648;0,0639748
1309,4291;0,0648823
1310,3933;0,065788
1311,3575;0,0666688
1312,3218;0,0674966
1313,2860;0,0682411
1314,2502;0,0688728
1315,2145;0,0693629
1316,1787;0,0696841
1317,1429;0,0698147
1318,1072;0,0697505
1319,0714;0,0695155
1320,0356;0,0691628
1320,9999;0,0687587
1321,9641;0,0683605
1322,9283;0,0680034
1323,8926;0,0677023
1324,8568;0,0674611
1325,8210;0,0672792
1326,7853;0,0671519
1327,7495;0,0670678
1328,7137;0,0670073
1329,6780;0,0669454
1330,6422;0,0668595
1331,6064;0,066737
1332,5707;0,0665777
1333,5349;0,0663918
1334,4991;0,0661877
1335,4634;0,0659588
1336,4276;0,0656729
1337,3918;0,0652716
1338,3561;0,0646946
1339,3203;0,0639298
1340,2845;0,0630489
1341,2488;0,0621752
1342,2130;0,0614103
1343,1772;0,0607956
1344,1415;0,0603263
1345,1057;0,0599829
1346,0699;0,0597516
1347,0342;0,0596283
1347,9984;0,0596171
1348,9626;0,0597227
1349,9269;0,0599436
1350,8911;0,0602663
1351,8553;0,0606668
1352,8196;0,0611188
1353,7838;0,0616033
1354,7480;0,0621148
1355,7123;0,0626598
1356,6765;0,0632486
1357,6407;0,0638872
1358,6050;0,064575
1359,5692;0,0653044
1360,5334;0,0660499
