TITLE;
DATA TYPE;INFRARED SPECTRUM
ORIGIN;JASCO
OWNER;
DATE;25/03/19
TIME;15:35:55
SPECTROMETER/DATA SYSTEM;
LOCALE;9226
RESOLUTION;
DELTAX;0,964233
XUNITS;1/CM
YUNITS;ABSORBANCE
FIRSTX;  399,1927
LASTX; 4000,6047
NPOINTS;    3736
FIRSTY;     0,22013
MAXY;     0,29812
MINY;     0,01393
XYDATA
399,1927;0,220131
400,1569;0,219162
401,1211;0,21907
402,0854;0,219682
403,0496;0,220608
404,0138;0,221502
404,9781;0,222146
405,9423;0,222449
406,9065;0,222407
407,8708;0,222082
408,8350;0,221614
409,7992;0,221251
410,7635;0,221317
411,7277;0,222057
412,6919;0,223461
413,6562;0,225238
414,6204;0,226962
415,5846;0,228248
416,5489;0,228863
417,5131;0,228849
418,4773;0,228648
419,4416;0,22892
420,4058;0,229944
421,3700;0,231447
422,3343;0,233045
423,2985;0,234542
424,2627;0,2359
425,2270;0,237121
426,1912;0,238164
427,1554;0,238951
428,1197;0,239423
429,0839;0,239618
430,0481;0,239689
431,0124;0,239848
431,9766;0,240259
432,9408;0,240936
433,9051;0,241727
434,8693;0,242402
435,8335;0,242779
436,7978;0,24282
437,7620;0,242599
438,7262;0,242219
439,6905;0,241729
440,6547;0,241137
441,6189;0,240466
442,5832;0,239802
443,5474;0,239271
444,5116;0,238947
445,4759;0,238783
446,4401;0,238636
447,4043;0,238364
448,3686;0,237908
449,3328;0,237326
450,2970;0,236759
451,2613;0,236358
452,2255;0,236196
453,1897;0,236217
454,1540;0,23627
455,1182;0,236185
456,0824;0,235892
457,0467;0,235506
458,0109;0,235305
458,9751;0,235529
459,9394;0,236162
460,9036;0,236925
461,8678;0,23746
462,8321;0,237526
463,7963;0,237107
464,7605;0,236408
465,7248;0,235747
466,6890;0,235379
467,6532;0,235347
468,6175;0,235494
469,5817;0,235582
470,5459;0,235456
471,5102;0,23513
472,4744;0,234776
473,4386;0,234596
474,4029;0,234678
475,3671;0,234954
476,3313;0,235276
477,2956;0,235502
478,2598;0,235537
479,2240;0,235357
480,1883;0,235008
481,1525;0,234599
482,1167;0,234273
483,0810;0,234163
484,0452;0,234346
485,0094;0,234802
485,9737;0,235431
486,9379;0,236117
487,9021;0,23679
488,8664;0,237444
489,8306;0,238104
490,7948;0,23878
491,7591;0,239429
492,7233;0,239953
493,6875;0,24025
494,6518;0,240276
495,6160;0,240074
496,5802;0,239758
497,5445;0,239458
498,5087;0,239264
499,4729;0,239211
500,4372;0,239287
501,4014;0,23948
502,3656;0,239802
503,3299;0,240289
504,2941;0,240957
505,2583;0,241756
506,2226;0,242571
507,1868;0,243268
508,1510;0,243769
509,1153;0,244097
510,0795;0,244369
511,0437;0,244717
512,0080;0,245212
512,9722;0,245835
513,9365;0,246506
514,9007;0,247135
515,8649;0,247666
516,8292;0,248084
517,7934;0,248398
518,7576;0,248617
519,7219;0,248743
520,6861;0,248789
521,6503;0,248779
522,6146;0,248744
523,5788;0,248706
524,5430;0,248661
525,5073;0,248585
526,4715;0,24846
527,4357;0,248284
528,4000;0,248081
529,3642;0,247865
530,3284;0,247632
531,2927;0,247357
532,2569;0,247017
533,2211;0,246621
534,1854;0,24622
535,1496;0,245883
536,1138;0,245667
537,0781;0,245585
538,0423;0,245606
539,0065;0,245674
539,9708;0,245741
540,9350;0,245786
541,8992;0,245822
542,8635;0,245879
543,8277;0,246001
544,7919;0,246224
545,7562;0,246568
546,7204;0,247032
547,6846;0,247589
548,6489;0,248198
549,6131;0,248826
550,5773;0,249454
551,5416;0,25008
552,5058;0,250704
553,4700;0,251307
554,4343;0,251842
555,3985;0,252232
556,3627;0,252385
557,3270;0,252213
558,2912;0,251647
559,2554;0,250663
560,2197;0,249294
561,1839;0,247635
562,1481;0,24583
563,1124;0,244028
564,0766;0,24234
565,0408;0,240816
566,0051;0,239456
566,9693;0,238253
567,9335;0,237213
568,8978;0,236368
569,8620;0,235734
570,8262;0,235291
571,7905;0,234973
572,7547;0,2347
573,7189;0,234411
574,6832;0,234083
575,6474;0,233731
576,6116;0,233382
577,5759;0,233057
578,5401;0,232766
579,5043;0,23251
580,4686;0,232289
581,4328;0,232102
582,3970;0,231936
583,3613;0,231766
584,3255;0,231565
585,2897;0,231321
586,2540;0,231053
587,2182;0,2308
588,1824;0,230603
589,1467;0,23048
590,1109;0,230416
591,0751;0,23037
592,0394;0,230288
593,0036;0,230128
593,9678;0,229876
594,9321;0,229533
595,8963;0,229113
596,8605;0,228626
597,8248;0,228081
598,7890;0,227487
599,7532;0,226863
600,7175;0,226236
601,6817;0,22563
602,6459;0,225064
603,6102;0,224539
604,5744;0,224041
605,5386;0,223543
606,5029;0,223015
607,4671;0,222427
608,4313;0,221766
609,3956;0,221038
610,3598;0,220275
611,3240;0,219529
612,2883;0,218844
613,2525;0,218233
614,2167;0,217645
615,1810;0,216973
616,1452;0,216087
617,1094;0,214896
618,0737;0,213408
619,0379;0,211733
620,0021;0,210021
620,9664;0,208391
621,9306;0,206902
622,8948;0,205568
623,8591;0,204387
624,8233;0,203353
625,7875;0,202484
626,7518;0,201754
627,7160;0,201102
628,6802;0,200439
629,6445;0,199691
630,6087;0,198828
631,5729;0,197882
632,5372;0,196928
633,5014;0,19605
634,4656;0,195305
635,4299;0,194705
636,3941;0,194221
637,3583;0,193795
638,3226;0,193374
639,2868;0,192925
640,2510;0,192444
641,2153;0,191958
642,1795;0,191506
643,1437;0,191114
644,1080;0,190776
645,0722;0,19045
646,0364;0,190077
647,0007;0,189615
647,9649;0,189073
648,9291;0,188521
649,8934;0,188063
650,8576;0,187792
651,8218;0,187743
652,7861;0,187887
653,7503;0,188154
654,7145;0,188472
655,6788;0,1888
656,6430;0,189131
657,6072;0,189465
658,5715;0,189778
659,5357;0,189995
660,4999;0,190028
661,4642;0,18984
662,4284;0,189484
663,3926;0,18908
664,3569;0,188748
665,3211;0,188583
666,2853;0,188583
667,2496;0,188494
668,2138;0,187742
669,1780;0,186009
670,1423;0,183774
671,1065;0,181612
672,0707;0,179637
673,0350;0,177726
673,9992;0,175779
674,9634;0,173799
675,9277;0,171863
676,8919;0,170041
677,8561;0,168337
678,8204;0,1667
679,7846;0,165095
680,7488;0,163539
681,7131;0,162103
682,6773;0,160854
683,6415;0,159823
684,6058;0,158995
685,5700;0,158333
686,5342;0,157792
687,4985;0,157321
688,4627;0,156871
689,4269;0,156393
690,3912;0,155865
691,3554;0,15529
692,3196;0,154701
693,2839;0,154137
694,2481;0,153623
695,2123;0,153159
696,1766;0,152714
697,1408;0,152241
698,1050;0,1517
699,0693;0,151072
700,0335;0,150374
700,9977;0,149649
701,9620;0,148947
702,9262;0,148303
703,8904;0,147709
704,8547;0,147128
705,8189;0,146505
706,7831;0,145795
707,7474;0,14499
708,7116;0,144114
709,6758;0,143204
710,6401;0,142288
711,6043;0,141365
712,5685;0,140423
713,5328;0,139458
714,4970;0,1385
715,4612;0,137445
716,4255;0,136656
717,3897;0,135943
718,3539;0,135219
719,3182;0,134368
720,2824;0,133307
721,2466;0,13204
722,2109;0,130657
723,1751;0,129268
724,1393;0,127947
725,1036;0,12671
726,0678;0,125533
727,0320;0,12439
727,9963;0,123279
728,9605;0,122219
729,9247;0,121239
730,8890;0,120356
731,8532;0,119567
732,8174;0,118852
733,7817;0,118183
734,7459;0,117537
735,7101;0,1169
736,6744;0,116276
737,6386;0,115674
738,6028;0,115107
739,5671;0,114579
740,5313;0,114079
741,4955;0,113588
742,4598;0,113084
743,4240;0,112557
744,3882;0,112008
745,3525;0,111449
746,3167;0,110892
747,2809;0,110348
748,2452;0,109816
749,2094;0,109287
750,1736;0,108752
751,1379;0,1082
752,1021;0,107627
753,0663;0,107034
754,0306;0,106427
754,9948;0,105815
755,9590;0,105207
756,9233;0,104612
757,8875;0,104038
758,8517;0,103493
759,8160;0,102983
760,7802;0,102508
761,7444;0,10206
762,7087;0,101627
763,6729;0,101193
764,6371;0,100747
765,6014;0,100288
766,5656;0,0998217
767,5298;0,0993639
768,4941;0,0989297
769,4583;0,0985288
770,4225;0,0981599
771,3868;0,0978122
772,3510;0,0974699
773,3152;0,0971195
774,2795;0,0967542
775,2437;0,096376
776,2079;0,0959936
777,1722;0,0956196
778,1364;0,0952653
779,1006;0,0949361
780,0649;0,0946263
781,0291;0,0943191
781,9933;0,0939903
782,9576;0,0936194
783,9218;0,0931999
784,8860;0,0927444
785,8503;0,0922801
786,8145;0,0918361
787,7787;0,091431
788,7430;0,091066
789,7072;0,0907292
790,6714;0,0904054
791,6357;0,0900856
792,5999;0,0897718
793,5641;0,0894726
794,5284;0,0891965
795,4926;0,0889448
796,4568;0,0887097
797,4211;0,0884782
798,3853;0,0882384
799,3495;0,0879846
800,3138;0,0877181
801,2780;0,0874441
802,2422;0,0871669
803,2065;0,0868875
804,1707;0,0866051
805,1349;0,0863214
806,0992;0,0860433
807,0634;0,0857821
808,0276;0,0855494
808,9919;0,0853509
809,9561;0,0851848
810,9203;0,085043
811,8846;0,0849155
812,8488;0,0847958
813,8130;0,084682
814,7773;0,0845754
815,7415;0,0844767
816,7057;0,0843824
817,6700;0,0842832
818,6342;0,0841678
819,5984;0,0840285
820,5627;0,0838667
821,5269;0,0836946
822,4911;0,0835297
823,4554;0,0833872
824,4196;0,0832723
825,3839;0,08318
826,3481;0,0830995
827,3123;0,0830202
828,2766;0,0829343
829,2408;0,0828338
830,2050;0,0827064
831,1693;0,0825358
832,1335;0,0823078
833,0977;0,0820194
834,0620;0,0816826
835,0262;0,0813212
835,9904;0,0809606
836,9547;0,0806188
837,9189;0,0803017
838,8831;0,0800057
839,8474;0,0797221
840,8116;0,0794429
841,7758;0,0791635
842,7401;0,0788843
843,7043;0,0786112
844,6685;0,078354
845,6328;0,0781215
846,5970;0,0779165
847,5612;0,0777335
848,5255;0,0775605
849,4897;0,0773858
850,4539;0,0772048
851,4182;0,0770212
852,3824;0,0768443
853,3466;0,076683
854,3109;0,0765423
855,2751;0,076423
856,2393;0,0763231
857,2036;0,0762397
858,1678;0,0761683
859,1320;0,076103
860,0963;0,0760382
861,0605;0,0759722
862,0247;0,0759111
862,9890;0,0758692
863,9532;0,0758657
864,9174;0,0759181
865,8817;0,0760355
866,8459;0,0762162
867,8101;0,0764482
868,7744;0,0767143
869,7386;0,0769976
870,7028;0,0772856
871,6671;0,0775713
872,6313;0,0778506
873,5955;0,0781183
874,5598;0,0783665
875,5240;0,0785854
876,4882;0,0787696
877,4525;0,0789237
878,4167;0,0790673
879,3809;0,0792331
880,3452;0,07946
881,3094;0,0797836
882,2736;0,080227
883,2379;0,0807977
884,2021;0,0814893
885,1663;0,0822871
886,1306;0,0831746
887,0948;0,0841371
888,0590;0,0851608
889,0233;0,0862299
889,9875;0,0873222
890,9517;0,0884078
891,9160;0,0894484
892,8802;0,0904011
893,8444;0,091223
894,8087;0,0918789
895,7729;0,0923481
896,7371;0,0926291
897,7014;0,0927368
898,6656;0,092694
899,6298;0,0925198
900,5941;0,0922236
901,5583;0,0918086
902,5225;0,0912837
903,4868;0,0906751
904,4510;0,090029
905,4152;0,0894018
906,3795;0,0888418
907,3437;0,0883748
908,3079;0,0880024
909,2722;0,0877124
910,2364;0,0874952
911,2007;0,0873544
912,1649;0,0873049
913,1292;0,0873618
914,0934;0,0875262
915,0576;0,0877805
916,0219;0,0880924
916,9861;0,0884286
917,9503;0,0887677
918,9146;0,0891055
919,8788;0,0894521
920,8430;0,089821
921,8073;0,0902177
922,7715;0,0906338
923,7357;0,091048
924,7000;0,0914347
925,6642;0,0917727
926,6284;0,0920518
927,5927;0,0922747
928,5569;0,0924535
929,5211;0,0926059
930,4854;0,092751
931,4496;0,0929079
932,4138;0,0930939
933,3781;0,0933231
934,3423;0,0936049
935,3065;0,0939438
936,2708;0,0943399
937,2350;0,0947921
938,1992;0,0953021
939,1635;0,0958757
940,1277;0,096524
941,0919;0,0972601
942,0562;0,0980952
943,0204;0,099034
943,9846;0,100073
944,9489;0,101199
945,9131;0,102401
946,8773;0,103666
947,8416;0,104997
948,8058;0,106402
949,7700;0,107894
950,7343;0,109478
951,6985;0,11115
952,6627;0,112896
953,6270;0,114701
954,5912;0,116557
955,5554;0,11847
956,5197;0,120455
957,4839;0,122531
958,4481;0,124711
959,4124;0,126993
960,3766;0,129366
961,3408;0,131809
962,3051;0,134295
963,2693;0,136802
964,2335;0,139319
965,1978;0,141852
966,1620;0,144421
967,1262;0,147057
968,0905;0,149789
969,0547;0,152644
970,0189;0,155647
970,9832;0,158825
971,9474;0,162214
972,9116;0,165855
973,8759;0,169782
974,8401;0,174011
975,8043;0,178534
976,7686;0,183327
977,7328;0,188346
978,6970;0,193527
979,6613;0,198775
980,6255;0,203957
981,5897;0,208909
982,5540;0,213468
983,5182;0,217515
984,4824;0,221002
985,4467;0,223963
986,4109;0,226489
987,3751;0,228696
988,3394;0,230686
989,3036;0,232531
990,2678;0,234263
991,2321;0,23589
992,1963;0,237399
993,1605;0,238776
994,1248;0,240012
995,0890;0,241113
996,0532;0,242097
997,0175;0,242984
997,9817;0,243792
998,9459;0,244532
999,9102;0,245216
1000,8744;0,245876
1001,8386;0,246572
1002,8029;0,247386
1003,7671;0,248409
1004,7313;0,249713
1005,6956;0,251335
1006,6598;0,253276
1007,6240;0,255512
1008,5883;0,258006
1009,5525;0,260719
1010,5167;0,26361
1011,4810;0,266624
1012,4452;0,26969
1013,4094;0,272721
1014,3737;0,275624
1015,3379;0,27832
1016,3021;0,280757
1017,2664;0,282913
1018,2306;0,284801
1019,1948;0,286456
1020,1591;0,287923
1021,1233;0,289256
1022,0875;0,290502
1023,0518;0,2917
1024,0160;0,292868
1024,9802;0,294008
1025,9445;0,295103
1026,9087;0,29612
1027,8729;0,297013
1028,8372;0,297713
1029,8014;0,298124
1030,7656;0,298119
1031,7299;0,29756
1032,6941;0,296325
1033,6583;0,294363
1034,6226;0,29172
1035,5868;0,288557
1036,5510;0,285118
1037,5153;0,281684
1038,4795;0,278515
1039,4437;0,275807
1040,4080;0,273672
1041,3722;0,272138
1042,3364;0,271166
1043,3007;0,270662
1044,2649;0,270504
1045,2291;0,270558
1046,1934;0,270692
1047,1576;0,270794
1048,1218;0,270774
1049,0861;0,270561
1050,0503;0,270104
1051,0145;0,269361
1051,9788;0,268305
1052,9430;0,266927
1053,9072;0,265231
1054,8715;0,263226
1055,8357;0,260906
1056,7999;0,258237
1057,7642;0,255153
1058,7284;0,251582
1059,6926;0,247492
1060,6569;0,242925
1061,6211;0,238018
1062,5853;0,232979
1063,5496;0,22804
1064,5138;0,223394
1065,4780;0,219156
1066,4423;0,215352
1067,4065;0,211937
1068,3707;0,208829
1069,3350;0,205937
1070,2992;0,203182
1071,2634;0,200503
1072,2277;0,197847
1073,1919;0,195172
1074,1561;0,192442
1075,1204;0,189636
1076,0846;0,186747
1077,0488;0,183793
1078,0131;0,18082
1078,9773;0,177901
1079,9415;0,175124
1080,9058;0,172576
1081,8700;0,170326
1082,8342;0,168409
1083,7985;0,166827
1084,7627;0,165556
1085,7269;0,164551
1086,6912;0,163768
1087,6554;0,163162
1088,6196;0,162701
1089,5839;0,16237
1090,5481;0,162168
1091,5123;0,162107
1092,4766;0,162198
1093,4408;0,162438
1094,4050;0,162806
1095,3693;0,163264
1096,3335;0,163768
1097,2977;0,164281
1098,2620;0,16478
1099,2262;0,165251
1100,1904;0,165678
1101,1547;0,166033
1102,1189;0,166283
1103,0831;0,166392
1104,0474;0,166344
1105,0116;0,166146
1105,9758;0,165828
1106,9401;0,165426
1107,9043;0,164951
1108,8685;0,164375
1109,8328;0,163621
1110,7970;0,162587
1111,7612;0,161185
1112,7255;0,159383
1113,6897;0,15723
1114,6539;0,154853
1115,6182;0,152419
1116,5824;0,150087
1117,5466;0,147964
1118,5109;0,146083
1119,4751;0,144398
1120,4393;0,142813
1121,4036;0,141208
1122,3678;0,139475
1123,3320;0,137538
1124,2963;0,135364
1125,2605;0,132962
1126,2247;0,130376
1127,1890;0,127666
1128,1532;0,124897
1129,1174;0,122122
1130,0817;0,119381
1131,0459;0,116699
1132,0101;0,114095
1132,9744;0,111592
1133,9386;0,109224
1134,9028;0,10704
1135,8671;0,105097
1136,8313;0,103447
1137,7955;0,102129
1138,7598;0,101155
1139,7240;0,100516
1140,6882;0,100182
1141,6525;0,100115
1142,6167;0,100267
1143,5809;0,100594
1144,5452;0,101051
1145,5094;0,101605
1146,4736;0,102233
1147,4379;0,102929
1148,4021;0,103697
1149,3663;0,104544
1150,3306;0,105462
1151,2948;0,106429
1152,2590;0,1074
1153,2233;0,108321
1154,1875;0,109139
1155,1517;0,10981
1156,1160;0,110292
1157,0802;0,110538
1158,0444;0,110483
1159,0087;0,110047
1159,9729;0,109134
1160,9371;0,107664
1161,9014;0,105586
1162,8656;0,102904
1163,8298;0,0996825
1164,7941;0,0960426
1165,7583;0,0921453
1166,7225;0,088168
1167,6868;0,0842792
1168,6510;0,0806151
1169,6152;0,0772652
1170,5795;0,0742696
1171,5437;0,0716282
1172,5079;0,0693162
1173,4722;0,0672996
1174,4364;0,0655455
1175,4006;0,064025
1176,3649;0,0627128
1177,3291;0,0615864
1178,2933;0,0606256
1179,2576;0,059813
1180,2218;0,0591335
1181,1860;0,0585725
1182,1503;0,0581152
1183,1145;0,0577478
1184,0787;0,0574614
1185,0430;0,0572549
1186,0072;0,0571351
1186,9714;0,0571139
1187,9357;0,057203
1188,8999;0,0574093
1189,8641;0,0577319
1190,8284;0,0581631
1191,7926;0,0586909
1192,7568;0,0593028
1193,7211;0,0599884
1194,6853;0,0607391
1195,6495;0,0615451
1196,6138;0,0623918
1197,5780;0,0632575
1198,5422;0,0641159
1199,5065;0,064892
1200,4707;0,0656769
1201,4349;0,0664088
1202,3992;0,0670884
1203,3634;0,0677163
1204,3276;0,0682875
1205,2919;0,0687927
1206,2561;0,0692258
1207,2203;0,0695933
1208,1846;0,0699199
1209,1488;0,0702461
1210,1130;0,0706196
1211,0773;0,0710836
1212,0415;0,0716666
1213,0057;0,0723776
1213,9700;0,0732081
1214,9342;0,0741379
1215,8984;0,0751412
1216,8627;0,0761917
1217,8269;0,0772642
1218,7911;0,0783372
1219,7554;0,0793936
1220,7196;0,0804222
1221,6838;0,0814179
1222,6481;0,0823799
1223,6123;0,083308
1224,5765;0,0841993
1225,5408;0,0850482
1226,5050;0,0858477
1227,4692;0,0865936
1228,4335;0,0872857
1229,3977;0,0879264
1230,3619;0,088517
1231,3262;0,0890537
1232,2904;0,0895272
1233,2546;0,0899257
1234,2189;0,0902407
1235,1831;0,0904712
1236,1473;0,0906259
1237,1116;0,0907207
1238,0758;0,0907739
1239,0400;0,0908001
1240,0043;0,0908064
1240,9685;0,0907909
1241,9327;0,0907446
1242,8970;0,0906549
1243,8612;0,0905101
1244,8254;0,0903028
1245,7897;0,0900327
1246,7539;0,089706
1247,7181;0,0893348
1248,6824;0,0889344
1249,6466;0,08852
1250,6108;0,0881051
1251,5751;0,0877
1252,5393;0,0873123
1253,5035;0,0869463
1254,4678;0,0866031
1255,4320;0,0862786
1256,3962;0,0859637
1257,3605;0,0856449
1258,3247;0,0853075
1259,2889;0,0849398
1260,2532;0,0845356
1261,2174;0,0840932
1262,1816;0,0836132
1263,1459;0,0830951
1264,1101;0,0825375
1265,0743;0,0819396
1266,0386;0,0813036
1267,0028;0,0806352
1267,9670;0,0799425
1268,9313;0,079233
1269,8955;0,0785121
1270,8597;0,0777826
1271,8240;0,0770464
1272,7882;0,0763068
1273,7524;0,0755705
1274,7167;0,0748481
1275,6809;0,0741506
1276,6451;0,0734856
1277,6094;0,0728515
1278,5736;0,0722368
1279,5378;0,0716234
1280,5021;0,0709958
1281,4663;0,0703496
1282,4305;0,0696936
1283,3948;0,0690465
1284,3590;0,0684287
1285,3232;0,0678568
1286,2875;0,0673424
1287,2517;0,0668947
1288,2159;0,0665216
1289,1802;0,0662286
1290,1444;0,0660154
1291,1086;0,0658753
1292,0729;0,0657989
1293,0371;0,0657808
1294,0013;0,0658248
1294,9656;0,0659429
1295,9298;0,0661495
1296,8940;0,0664534
1297,8583;0,0668541
1298,8225;0,0673431
1299,7867;0,0679089
1300,7510;0,0685414
1301,7152;0,069235
1302,6794;0,0699872
1303,6437;0,0707973
1304,6079;0,0716648
1305,5721;0,0725861
1306,5364;0,0735528
1307,5006;0,0745516
1308,4648;0,0755661
1309,4291;0,0765796
1310,3933;0,0775751
1311,3575;0,0785328
1312,3218;0,0794271
1313,2860;0,0802247
1314,2502;0,0808874
1315,2145;0,0813774
1316,1787;0,0816633
1317,1429;0,0817284
1318,1072;0,0815806
1319,0714;0,0812589
1320,0356;0,0808267
1320,9999;0,0803533
1321,9641;0,0798931
1322,9283;0,0794767
1323,8926;0,0791154
1324,8568;0,0788111
1325,8210;0,0785633
1326,7853;0,0783705
1327,7495;0,0782269
1328,7137;0,0781197
1329,6780;0,078029
1330,6422;0,077931
1331,6064;0,0778048
1332,5707;0,077636
1333,5349;0,0774167
1334,4991;0,0771376
1335,4634;0,0767789
1336,4276;0,0763077
1337,3918;0,0756906
1338,3561;0,0749221
1339,3203;0,0740526
1340,2845;0,0731795
1341,2488;0,0723943
1342,2130;0,071737
1343,1772;0,0711965
1344,1415;0,0707421
1345,1057;0,0703535
1346,0699;0,0700332
1347,0342;0,069803
1347,9984;0,06969
1348,9626;0,0697115
1349,9269;0,069865
1350,8911;0,0701292
1351,8553;0,0704721
1352,8196;0,0708635
1353,7838;0,0712854
1354,7480;0,0717365
1355,7123;0,072227
1356,6765;0,0727659
1357,6407;0,0733507
1358,6050;0,0739649
1359,5692;0,0745814
1360,5334;0,0751673
1361,4977;0,075693
1362,4619;0,0761491
1363,4261;0,0765573
