TITLE;
DATA TYPE;INFRARED SPECTRUM
ORIGIN;JASCO
OWNER;
DATE;25/03/19
TIME;14:43:24
SPECTROMETER/DATA SYSTEM;
LOCALE;9226
RESOLUTION;
DELTAX;0,964233
XUNITS;1/CM
YUNITS;ABSORBANCE
FIRSTX;  399,1927
LASTX; 4000,6047
NPOINTS;    3736
FIRSTY;     0,23532
MAXY;     0,28942
MINY;    -0,00425
XYDATA
399,1927;0,235316
400,1569;0,23341
401,1211;0,231181
402,0854;0,229051
403,0496;0,22731
404,0138;0,226176
404,9781;0,225808
405,9423;0,226237
406,9065;0,227279
407,8708;0,228553
408,8350;0,229631
409,7992;0,230244
410,7635;0,230425
411,7277;0,230508
412,6919;0,230947
413,6562;0,232076
414,6204;0,233987
415,5846;0,236542
416,5489;0,239382
417,5131;0,24189
418,4773;0,243357
419,4416;0,243562
420,4058;0,243091
421,3700;0,242673
422,3343;0,24254
423,2985;0,242506
424,2627;0,242318
425,2270;0,241909
426,1912;0,241486
427,1554;0,241392
428,1197;0,241874
429,0839;0,242905
430,0481;0,244199
431,0124;0,245363
431,9766;0,24609
432,9408;0,246273
433,9051;0,245983
434,8693;0,245355
435,8335;0,244496
436,7978;0,24348
437,7620;0,24239
438,7262;0,241355
439,6905;0,240531
440,6547;0,24006
441,6189;0,239997
442,5832;0,240251
443,5474;0,240566
444,5116;0,240618
445,4759;0,240163
446,4401;0,239157
447,4043;0,237763
448,3686;0,236278
449,3328;0,235028
450,2970;0,234269
451,2613;0,234096
452,2255;0,234426
453,1897;0,235042
454,1540;0,235672
455,1182;0,236059
456,0824;0,236012
457,0467;0,235485
458,0109;0,234636
458,9751;0,23379
459,9394;0,233236
460,9036;0,233055
461,8678;0,233119
462,8321;0,233212
463,7963;0,233153
464,7605;0,232888
465,7248;0,232497
466,6890;0,232135
467,6532;0,231929
468,6175;0,23192
469,5817;0,23207
470,5459;0,232315
471,5102;0,23259
472,4744;0,232826
473,4386;0,232948
474,4029;0,232896
475,3671;0,232667
476,3313;0,232321
477,2956;0,23196
478,2598;0,231662
479,2240;0,231444
480,1883;0,231254
481,1525;0,23103
482,1167;0,230774
483,0810;0,230595
484,0452;0,230656
485,0094;0,231076
485,9737;0,23184
486,9379;0,232811
487,9021;0,233804
488,8664;0,234664
489,8306;0,235287
490,7948;0,235609
491,7591;0,235616
492,7233;0,235372
493,6875;0,23503
494,6518;0,234798
495,6160;0,234854
496,5802;0,235263
497,5445;0,235949
498,5087;0,236733
499,4729;0,237421
500,4372;0,237901
501,4014;0,238185
502,3656;0,238389
503,3299;0,23864
504,2941;0,239002
505,2583;0,239459
506,2226;0,239957
507,1868;0,240451
508,1510;0,240924
509,1153;0,241381
510,0795;0,241841
511,0437;0,242331
512,0080;0,242895
512,9722;0,243584
513,9365;0,244428
514,9007;0,2454
515,8649;0,246389
516,8292;0,247225
517,7934;0,247743
518,7576;0,247879
519,7219;0,247699
520,6861;0,247354
521,6503;0,246991
522,6146;0,24671
523,5788;0,246555
524,5430;0,246538
525,5073;0,246635
526,4715;0,246787
527,4357;0,246909
528,4000;0,246921
529,3642;0,246777
530,3284;0,246477
531,2927;0,246051
532,2569;0,245536
533,2211;0,244962
534,1854;0,24435
535,1496;0,243729
536,1138;0,243146
537,0781;0,242669
538,0423;0,242371
539,0065;0,242299
539,9708;0,242458
540,9350;0,242814
541,8992;0,243301
542,8635;0,243838
543,8277;0,244351
544,7919;0,244792
545,7562;0,24516
546,7204;0,245503
547,6846;0,245887
548,6489;0,246358
549,6131;0,246905
550,5773;0,247467
551,5416;0,247978
552,5058;0,248412
553,4700;0,248789
554,4343;0,249135
555,3985;0,249426
556,3627;0,249559
557,3270;0,249376
558,2912;0,248742
559,2554;0,247608
560,2197;0,246041
561,1839;0,244198
562,1481;0,24228
563,1124;0,240476
564,0766;0,238929
565,0408;0,237704
566,0051;0,236784
566,9693;0,236081
567,9335;0,235473
568,8978;0,234863
569,8620;0,234228
570,8262;0,233623
571,7905;0,233134
572,7547;0,23282
573,7189;0,23267
574,6832;0,232606
575,6474;0,232524
576,6116;0,232341
577,5759;0,232039
578,5401;0,231657
579,5043;0,231264
580,4686;0,230921
581,4328;0,230656
582,3970;0,230464
583,3613;0,230307
584,3255;0,230141
585,2897;0,229932
586,2540;0,229682
587,2182;0,229421
588,1824;0,229195
589,1467;0,229034
590,1109;0,228932
591,0751;0,228837
592,0394;0,228671
593,0036;0,228371
593,9678;0,227918
594,9321;0,22734
595,8963;0,226692
596,8605;0,22603
597,8248;0,225391
598,7890;0,224795
599,7532;0,22424
600,7175;0,223717
601,6817;0,223209
602,6459;0,222699
603,6102;0,222179
604,5744;0,221653
605,5386;0,221134
606,5029;0,220627
607,4671;0,220116
608,4313;0,219553
609,3956;0,218883
610,3598;0,218087
611,3240;0,217218
612,2883;0,216392
613,2525;0,215738
614,2167;0,215306
615,1810;0,215006
616,1452;0,214607
617,1094;0,213836
618,0737;0,212528
619,0379;0,210725
620,0021;0,208658
620,9664;0,206614
621,9306;0,204814
622,8948;0,203355
623,8591;0,202214
624,8233;0,201244
625,7875;0,200459
626,7518;0,199775
627,7160;0,199138
628,6802;0,198506
629,6445;0,197856
630,6087;0,197178
631,5729;0,196481
632,5372;0,195775
633,5014;0,195073
634,4656;0,194385
635,4299;0,193731
636,3941;0,193149
637,3583;0,192678
638,3226;0,192338
639,2868;0,192104
640,2510;0,191909
641,2153;0,19168
642,1795;0,191377
643,1437;0,191016
644,1080;0,190651
645,0722;0,190325
646,0364;0,190036
647,0007;0,189743
647,9649;0,189401
648,9291;0,189011
649,8934;0,188639
650,8576;0,188384
651,8218;0,188324
652,7861;0,188476
653,7503;0,188796
654,7145;0,189204
655,6788;0,189615
656,6430;0,18997
657,6072;0,190251
658,5715;0,190466
659,5357;0,190608
660,4999;0,190608
661,4642;0,19033
662,4284;0,189605
663,3926;0,188299
664,3569;0,186433
665,3211;0,184378
666,2853;0,182935
667,2496;0,182885
668,2138;0,183874
669,1780;0,184472
670,1423;0,184098
671,1065;0,183103
672,0707;0,181651
673,0350;0,17972
673,9992;0,177431
674,9634;0,175069
675,9277;0,172909
676,8919;0,171062
677,8561;0,169466
678,8204;0,167995
679,7846;0,166574
680,7488;0,16519
681,7131;0,163865
682,6773;0,162612
683,6415;0,161435
684,6058;0,160351
685,5700;0,159394
686,5342;0,15859
687,4985;0,157931
688,4627;0,157384
689,4269;0,156883
690,3912;0,156382
691,3554;0,155874
692,3196;0,155371
693,2839;0,154886
694,2481;0,15442
695,2123;0,153965
696,1766;0,153509
697,1408;0,153036
698,1050;0,15253
699,0693;0,151971
700,0335;0,15135
700,9977;0,150674
701,9620;0,149972
702,9262;0,149277
703,8904;0,148593
704,8547;0,147928
705,8189;0,147261
706,7831;0,146565
707,7474;0,145817
708,7116;0,14502
709,6758;0,144192
710,6401;0,143354
711,6043;0,142516
712,5685;0,141673
713,5328;0,140829
714,4970;0,14001
715,4612;0,138035
716,4255;0,137661
717,3897;0,137477
718,3539;0,137309
719,3182;0,136887
720,2824;0,135978
721,2466;0,134523
722,2109;0,132677
723,1751;0,130703
724,1393;0,128832
725,1036;0,127163
726,0678;0,125668
727,0320;0,124259
727,9963;0,122867
728,9605;0,121485
729,9247;0,120155
730,8890;0,118925
731,8532;0,117816
732,8174;0,116813
733,7817;0,115883
734,7459;0,114995
735,7101;0,114134
736,6744;0,113296
737,6386;0,112486
738,6028;0,111716
739,5671;0,110998
740,5313;0,110339
741,4955;0,10974
742,4598;0,109183
743,4240;0,108643
744,3882;0,108092
745,3525;0,107514
746,3167;0,106911
747,2809;0,106293
748,2452;0,105676
749,2094;0,105072
750,1736;0,104484
751,1379;0,10391
752,1021;0,103344
753,0663;0,102775
754,0306;0,102197
754,9948;0,101605
755,9590;0,100997
756,9233;0,100381
757,8875;0,0997708
758,8517;0,0991817
759,8160;0,098626
760,7802;0,0981105
761,7444;0,097637
762,7087;0,0972037
763,6729;0,0968038
764,6371;0,0964245
765,6014;0,0960466
766,5656;0,0956501
767,5298;0,0952237
768,4941;0,0947719
769,4583;0,0943139
770,4225;0,093872
771,3868;0,0934564
772,3510;0,093058
773,3152;0,0926546
774,2795;0,0922278
775,2437;0,0917781
776,2079;0,0913269
777,1722;0,0909035
778,1364;0,0905255
779,1006;0,0901871
780,0649;0,0898632
781,0291;0,089525
781,9933;0,0891569
782,9576;0,088762
783,9218;0,0883569
784,8860;0,0879594
785,8503;0,0875797
786,8145;0,0872185
787,7787;0,086871
788,7430;0,0865304
789,7072;0,0861911
790,6714;0,0858497
791,6357;0,0855071
792,5999;0,0851701
793,5641;0,0848506
794,5284;0,0845598
795,4926;0,0843005
796,4568;0,0840627
797,4211;0,0838271
798,3853;0,0835749
799,3495;0,0832977
800,3138;0,0830015
801,2780;0,0827014
802,2422;0,0824133
803,2065;0,0821459
804,1707;0,0819
805,1349;0,0816709
806,0992;0,0814528
807,0634;0,081241
808,0276;0,0810325
808,9919;0,0808262
809,9561;0,0806238
810,9203;0,0804298
811,8846;0,080249
812,8488;0,0800833
813,8130;0,0799285
814,7773;0,079775
815,7415;0,0796133
816,7057;0,0794412
817,6700;0,0792675
818,6342;0,0791092
819,5984;0,0789827
820,5627;0,0788937
821,5269;0,0788327
822,4911;0,0787795
823,4554;0,0787141
824,4196;0,0786276
825,3839;0,0785266
826,3481;0,0784271
827,3123;0,0783431
828,2766;0,0782765
829,2408;0,0782148
830,2050;0,0781368
831,1693;0,0780232
832,1335;0,0778632
833,0977;0,0776561
834,0620;0,077407
835,0262;0,0771222
835,9904;0,076808
836,9547;0,0764727
837,9189;0,0761286
838,8831;0,0757913
839,8474;0,0754754
840,8116;0,0751888
841,7758;0,0749303
842,7401;0,074692
843,7043;0,074465
844,6685;0,074244
845,6328;0,0740277
846,5970;0,0738154
847,5612;0,0736024
848,5255;0,0733802
849,4897;0,0731409
850,4539;0,072886
851,4182;0,0726312
852,3824;0,072403
853,3466;0,0722271
854,3109;0,0721148
855,2751;0,0720547
856,2393;0,0720164
857,2036;0,0719651
858,1678;0,0718785
859,1320;0,0717579
860,0963;0,0716259
861,0605;0,0715141
862,0247;0,0714487
862,9890;0,0714424
863,9532;0,0714973
864,9174;0,0716131
865,8817;0,071794
866,8459;0,0720456
867,8101;0,0723654
868,7744;0,0727336
869,7386;0,0731123
870,7028;0,0734557
871,6671;0,0737256
872,6313;0,0739022
873,5955;0,0739852
874,5598;0,0739878
875,5240;0,0739298
876,4882;0,0738361
877,4525;0,0737386
878,4167;0,0736764
879,3809;0,0736895
880,3452;0,0738087
881,3094;0,0740485
882,2736;0,0744086
883,2379;0,0748824
884,2021;0,0754653
885,1663;0,0761568
886,1306;0,0769549
887,0948;0,0778487
888,0590;0,0788163
889,0233;0,0798283
889,9875;0,0808541
890,9517;0,081865
891,9160;0,0828338
892,8802;0,0837333
893,8444;0,0845353
894,8087;0,0852139
895,7729;0,0857479
896,7371;0,0861214
897,7014;0,0863234
898,6656;0,0863491
899,6298;0,086203
900,5941;0,085903
901,5583;0,0854806
902,5225;0,084975
903,4868;0,0844261
904,4510;0,0838683
905,4152;0,0833307
906,3795;0,0828393
907,3437;0,0824185
908,3079;0,0820874
909,2722;0,0818553
910,2364;0,0817183
911,2007;0,0816629
912,1649;0,0816734
913,1292;0,0817375
914,0934;0,081849
915,0576;0,0820056
916,0219;0,0822069
916,9861;0,0824532
917,9503;0,082746
918,9146;0,0830871
919,8788;0,0834746
920,8430;0,0838986
921,8073;0,0843388
922,7715;0,0847682
923,7357;0,0851605
924,7000;0,0854971
925,6642;0,0857709
926,6284;0,0859844
927,5927;0,0861456
928,5569;0,0862653
929,5211;0,086357
930,4854;0,0864368
931,4496;0,0865227
932,4138;0,0866308
933,3781;0,0867723
934,3423;0,0869528
935,3065;0,0871758
936,2708;0,0874481
937,2350;0,0877825
938,1992;0,0881947
939,1635;0,0886968
940,1277;0,0892915
941,0919;0,0899721
942,0562;0,0907282
943,0204;0,0915541
943,9846;0,0924535
944,9489;0,0934363
945,9131;0,0945118
946,8773;0,0956814
947,8416;0,096938
948,8058;0,0982705
949,7700;0,0996712
950,7343;0,10114
951,6985;0,102683
952,6627;0,104312
953,6270;0,106037
954,5912;0,107864
955,5554;0,109797
956,5197;0,111839
957,4839;0,113983
958,4481;0,116219
959,4124;0,118531
960,3766;0,120902
961,3408;0,123317
962,3051;0,125762
963,2693;0,128229
964,2335;0,130711
965,1978;0,133203
966,1620;0,135712
967,1262;0,138258
968,0905;0,140879
969,0547;0,143618
970,0189;0,146519
970,9832;0,14961
971,9474;0,152911
972,9116;0,156431
973,8759;0,160188
974,8401;0,164209
975,8043;0,168522
976,7686;0,173138
977,7328;0,178034
978,6970;0,183133
979,6613;0,18831
980,6255;0,193401
981,5897;0,198234
982,5540;0,202661
983,5182;0,206592
984,4824;0,210009
985,4467;0,212964
986,4109;0,215545
987,3751;0,217852
988,3394;0,219959
989,3036;0,221908
990,2678;0,223712
991,2321;0,225376
992,1963;0,226904
993,1605;0,228304
994,1248;0,229585
995,0890;0,230748
996,0532;0,231793
997,0175;0,232721
997,9817;0,233542
998,9459;0,23428
999,9102;0,234973
1000,8744;0,235666
1001,8386;0,236413
1002,8029;0,237273
1003,7671;0,238303
1004,7313;0,239559
1005,6956;0,24108
1006,6598;0,242892
1007,6240;0,244998
1008,5883;0,247388
1009,5525;0,250041
1010,5167;0,252924
1011,4810;0,255989
1012,4452;0,259169
1013,4094;0,26237
1014,3737;0,26548
1015,3379;0,268387
1016,3021;0,271
1017,2664;0,273273
1018,2306;0,27521
1019,1948;0,276863
1020,1591;0,278312
1021,1233;0,279638
1022,0875;0,280905
1023,0518;0,282152
1024,0160;0,283388
1024,9802;0,284606
1025,9445;0,285788
1026,9087;0,286903
1027,8729;0,287909
1028,8372;0,288735
1029,8014;0,289282
1030,7656;0,289417
1031,7299;0,288993
1032,6941;0,287885
1033,6583;0,286032
1034,6226;0,283473
1035,5868;0,280358
1036,5510;0,27693
1037,5153;0,273474
1038,4795;0,270261
1039,4437;0,267505
1040,4080;0,265327
1041,3722;0,263758
1042,3364;0,262747
1043,3007;0,262185
1044,2649;0,261935
1045,2291;0,261861
1046,1934;0,261842
1047,1576;0,261785
1048,1218;0,26161
1049,0861;0,261246
1050,0503;0,260619
1051,0145;0,25966
1051,9788;0,258328
1052,9430;0,256621
1053,9072;0,254573
1054,8715;0,252231
1055,8357;0,249616
1056,7999;0,246695
1057,7642;0,243393
1058,7284;0,239626
1059,6926;0,235359
1060,6569;0,230648
1061,6211;0,225642
1062,5853;0,22055
1063,5496;0,215585
1064,5138;0,210916
1065,4780;0,206641
1066,4423;0,202789
1067,4065;0,199343
1068,3707;0,196252
1069,3350;0,193453
1070,2992;0,190873
1071,2634;0,188431
1072,2277;0,18604
1073,1919;0,183622
1074,1561;0,181115
1075,1204;0,178487
1076,0846;0,175738
1077,0488;0,172902
1078,0131;0,170041
1078,9773;0,16723
1079,9415;0,164551
1080,9058;0,162083
1081,8700;0,159885
1082,8342;0,15799
1083,7985;0,156398
1084,7627;0,155082
1085,7269;0,153996
1086,6912;0,153099
1087,6554;0,152363
1088,6196;0,151786
1089,5839;0,151379
1090,5481;0,151158
1091,5123;0,151124
1092,4766;0,151263
1093,4408;0,151545
1094,4050;0,151941
1095,3693;0,152428
1096,3335;0,152992
1097,2977;0,153615
1098,2620;0,15427
1099,2262;0,154917
1100,1904;0,155504
1101,1547;0,155981
1102,1189;0,156302
1103,0831;0,156443
1104,0474;0,156396
1105,0116;0,156182
1105,9758;0,155835
1106,9401;0,155395
1107,9043;0,154882
1108,8685;0,154271
1109,8328;0,15349
1110,7970;0,152439
1111,7612;0,15103
1112,7255;0,149236
1113,6897;0,147118
1114,6539;0,144811
1115,6182;0,142483
1116,5824;0,140281
1117,5466;0,138292
1118,5109;0,136525
1119,4751;0,134929
1120,4393;0,133412
1121,4036;0,131876
1122,3678;0,130224
1123,3320;0,128382
1124,2963;0,126305
1125,2605;0,123983
1126,2247;0,12144
1127,1890;0,118731
1128,1532;0,115926
1129,1174;0,113092
1130,0817;0,110286
1131,0459;0,107545
1132,0101;0,104893
1132,9744;0,102354
1133,9386;0,0999565
1134,9028;0,097741
1135,8671;0,0957589
1136,8313;0,0940618
1137,7955;0,0926885
1138,7598;0,0916564
1139,7240;0,0909572
1140,6882;0,0905615
1141,6525;0,0904275
1142,6167;0,0905092
1143,5809;0,0907624
1144,5452;0,0911475
1145,5094;0,0916314
1146,4736;0,0921904
1147,4379;0,0928131
1148,4021;0,0935006
1149,3663;0,0942606
1150,3306;0,0950969
1151,2948;0,0959975
1152,2590;0,09693
1153,2233;0,0978448
1154,1875;0,0986854
1155,1517;0,0993983
1156,1160;0,0999347
1157,0802;0,100244
1158,0444;0,100262
1159,0087;0,0999041
1159,9729;0,0990735
1160,9371;0,0976797
1161,9014;0,0956674
1162,8656;0,0930404
1163,8298;0,0898713
1164,7941;0,0862936
1165,7583;0,0824785
1166,7225;0,0786061
1167,6868;0,0748383
1168,6510;0,0712996
1169,6152;0,0680691
1170,5795;0,065182
1171,5437;0,0626395
1172,5079;0,0604209
1173,4722;0,058496
1174,4364;0,0568323
1175,4006;0,0553989
1176,3649;0,0541671
1177,3291;0,0531109
1178,2933;0,0522075
1179,2576;0,051438
1180,2218;0,0507877
1181,1860;0,0502456
1182,1503;0,0498036
1183,1145;0,0494562
1184,0787;0,0492011
1185,0430;0,049039
1186,0072;0,0489734
1186,9714;0,0490092
1187,9357;0,0491509
1188,8999;0,0494013
1189,8641;0,0497604
1190,8284;0,0502248
1191,7926;0,050788
1192,7568;0,0514418
1193,7211;0,0521783
1194,6853;0,05299
1195,6495;0,0538685
1196,6138;0,0548011
1197,5780;0,0557684
1198,5422;0,0567455
1199,5065;0,0574699
1200,4707;0,0584252
1201,4349;0,0593378
1202,3992;0,0602041
1203,3634;0,0610215
1204,3276;0,0617835
1205,2919;0,0624804
1206,2561;0,0631065
1207,2203;0,0636692
1208,1846;0,0641942
1209,1488;0,0647224
1210,1130;0,0652999
1211,0773;0,0659656
1212,0415;0,0667434
1213,0057;0,0676394
1213,9700;0,0686462
1214,9342;0,0697477
1215,8984;0,0709238
1216,8627;0,0721494
1217,8269;0,0733959
1218,7911;0,0746362
1219,7554;0,0758483
1220,7196;0,0770191
1221,6838;0,0781449
1222,6481;0,0792275
1223,6123;0,0802696
1224,5765;0,0812707
1225,5408;0,0822284
1226,5050;0,0831406
1227,4692;0,0840077
1228,4335;0,084832
1229,3977;0,0856136
1230,3619;0,0863471
1231,3262;0,0870221
1232,2904;0,0876258
1233,2546;0,0881491
1234,2189;0,088589
1235,1831;0,0889494
1236,1473;0,0892384
1237,1116;0,0894654
1238,0758;0,0896383
1239,0400;0,0897621
1240,0043;0,0898379
1240,9685;0,089862
1241,9327;0,0898276
1242,8970;0,0897262
1243,8612;0,0895511
1244,8254;0,0892998
1245,7897;0,0889757
1246,7539;0,0885878
1247,7181;0,0881491
1248,6824;0,0876743
1249,6466;0,0871776
1250,6108;0,0866709
1251,5751;0,0861644
1252,5393;0,0856675
1253,5035;0,0851901
1254,4678;0,0847416
1255,4320;0,0843259
1256,3962;0,0839365
1257,3605;0,0835539
1258,3247;0,0831492
1259,2889;0,0826935
1260,2532;0,0821681
1261,2174;0,0815711
1262,1816;0,0809146
1263,1459;0,0802166
1264,1101;0,0794929
1265,0743;0,0787525
1266,0386;0,0779984
1267,0028;0,0772295
1267,9670;0,0764425
1268,9313;0,0756335
1269,8955;0,0747994
1270,8597;0,0739396
1271,8240;0,0730582
1272,7882;0,072165
1273,7524;0,0712754
1274,7167;0,0704071
1275,6809;0,0695765
1276,6451;0,0687932
1277,6094;0,0680542
1278,5736;0,067343
1279,5378;0,0666344
1280,5021;0,0659061
1281,4663;0,0651508
1282,4305;0,064382
1283,3948;0,0636287
1284,3590;0,0629232
1285,3232;0,062288
1286,2875;0,0617296
1287,2517;0,0612403
1288,2159;0,0608067
1289,1802;0,0604184
1290,1444;0,0600729
1291,1086;0,0597761
1292,0729;0,0595394
1293,0371;0,0593767
1294,0013;0,0593016
1294,9656;0,0593244
1295,9298;0,05945
1296,8940;0,0596767
1297,8583;0,0599985
1298,8225;0,0604079
1299,7867;0,0608987
1300,7510;0,0614655
1301,7152;0,0621058
1302,6794;0,0628144
1303,6437;0,0635841
1304,6079;0,0644084
1305,5721;0,0652819
1306,5364;0,0661999
1307,5006;0,0671577
1308,4648;0,0681477
1309,4291;0,0691566
1310,3933;0,0701628
1311,3575;0,0711357
1312,3218;0,0720389
1313,2860;0,0728364
1314,2502;0,0734962
1315,2145;0,0739894
1316,1787;0,0742873
1317,1429;0,0743637
1318,1072;0,0742087
1319,0714;0,0738462
1320,0356;0,0733396
1320,9999;0,0727743
1321,9641;0,0722273
1322,9283;0,0717465
1323,8926;0,0713497
1324,8568;0,0710369
1325,8210;0,0708033
1326,7853;0,0706451
1327,7495;0,0705574
1328,7137;0,0705299
1329,6780;0,070543
1330,6422;0,0705717
1331,6064;0,0705928
1332,5707;0,070591
1333,5349;0,0705631
1334,4991;0,0705087
1335,4634;0,0704148
1336,4276;0,0702401
1337,3918;0,0699086
1338,3561;0,0693352
1339,3203;0,06849
1340,2845;0,0674482
1341,2488;0,0663596
1342,2130;0,0653594
1343,1772;0,0645133
1344,1415;0,0638278
1345,1057;0,0632863
1346,0699;0,0628743
1347,0342;0,062588
1347,9984;0,062434
1348,9626;0,0624214
1349,9269;0,0625515
1350,8911;0,0628096
1351,8553;0,063166
1352,8196;0,0635847
1353,7838;0,0640378
1354,7480;0,0645148
1355,7123;0,0650241
1356,6765;0,0655818
1357,6407;0,0662001
1358,6050;0,0668812
1359,5692;0,0676148
1360,5334;0,0683677
1361,4977;0,0690764
