TITLE;
DATA TYPE;INFRARED SPECTRUM
ORIGIN;JASCO
OWNER;
DATE;25/03/19
TIME;14:33:24
SPECTROMETER/DATA SYSTEM;
LOCALE;9226
RESOLUTION;
DELTAX;0,964233
XUNITS;1/CM
YUNITS;ABSORBANCE
FIRSTX;  399,1927
LASTX; 4000,6047
NPOINTS;    3736
FIRSTY;     0,21745
MAXY;     0,26242
MINY;    -0,00191
XYDATA
399,1927;0,217452
400,1569;0,216631
401,1211;0,215233
402,0854;0,21362
403,0496;0,212024
404,0138;0,21057
404,9781;0,20936
405,9423;0,208522
406,9065;0,208169
407,8708;0,208312
408,8350;0,208796
409,7992;0,209352
410,7635;0,209735
411,7277;0,209868
412,6919;0,209902
413,6562;0,210102
414,6204;0,210698
415,5846;0,211782
416,5489;0,213266
417,5131;0,214825
418,4773;0,215932
419,4416;0,21621
420,4058;0,21581
421,3700;0,215194
422,3343;0,214677
423,2985;0,214343
424,2627;0,214179
425,2270;0,214188
426,1912;0,214403
427,1554;0,214855
428,1197;0,215522
429,0839;0,216322
430,0481;0,217128
431,0124;0,217806
431,9766;0,218245
432,9408;0,218385
433,9051;0,218227
434,8693;0,217845
435,8335;0,217379
436,7978;0,216992
437,7620;0,2168
438,7262;0,216822
439,6905;0,216978
440,6547;0,217134
441,6189;0,217154
442,5832;0,21694
443,5474;0,21646
444,5116;0,215745
445,4759;0,214859
446,4401;0,213872
447,4043;0,212852
448,3686;0,211865
449,3328;0,210981
450,2970;0,210275
451,2613;0,209826
452,2255;0,209688
453,1897;0,209869
454,1540;0,210301
455,1182;0,210836
456,0824;0,211268
457,0467;0,211403
458,0109;0,211168
458,9751;0,210674
459,9394;0,210133
460,9036;0,209698
461,8678;0,209385
462,8321;0,209114
463,7963;0,208786
464,7605;0,20835
465,7248;0,207838
466,6890;0,207357
467,6532;0,207044
468,6175;0,207006
469,5817;0,207281
470,5459;0,207799
471,5102;0,208373
472,4744;0,208766
473,4386;0,208819
474,4029;0,208567
475,3671;0,208204
476,3313;0,207959
477,2956;0,207968
478,2598;0,208224
479,2240;0,208594
480,1883;0,208889
481,1525;0,208961
482,1167;0,208778
483,0810;0,208435
484,0452;0,208111
485,0094;0,207984
485,9737;0,208135
486,9379;0,208525
487,9021;0,209025
488,8664;0,209487
489,8306;0,209796
490,7948;0,209913
491,7591;0,209885
492,7233;0,209818
493,6875;0,209824
494,6518;0,209965
495,6160;0,210232
496,5802;0,210569
497,5445;0,210914
498,5087;0,21123
499,4729;0,211512
500,4372;0,211774
501,4014;0,212019
502,3656;0,212223
503,3299;0,21234
504,2941;0,212332
505,2583;0,212207
506,2226;0,212037
507,1868;0,211947
508,1510;0,212071
509,1153;0,212496
510,0795;0,213224
511,0437;0,214166
512,0080;0,215192
512,9722;0,216174
513,9365;0,217023
514,9007;0,21768
515,8649;0,2181
516,8292;0,21825
517,7934;0,218128
518,7576;0,217806
519,7219;0,217431
520,6861;0,217171
521,6503;0,217138
522,6146;0,21735
523,5788;0,217724
524,5430;0,21811
525,5073;0,218361
526,4715;0,218407
527,4357;0,218284
528,4000;0,21809
529,3642;0,2179
530,3284;0,217712
531,2927;0,217459
532,2569;0,217061
533,2211;0,216483
534,1854;0,215775
535,1496;0,215055
536,1138;0,214461
537,0781;0,214085
538,0423;0,213938
539,0065;0,213947
539,9708;0,214006
540,9350;0,214037
541,8992;0,214025
542,8635;0,214025
543,8277;0,214114
544,7919;0,214338
545,7562;0,214687
546,7204;0,2151
547,6846;0,215519
548,6489;0,215917
549,6131;0,216308
550,5773;0,216707
551,5416;0,217101
552,5058;0,217452
553,4700;0,217722
554,4343;0,217911
555,3985;0,218056
556,3627;0,218188
557,3270;0,218281
558,2912;0,218228
559,2554;0,217882
560,2197;0,217136
561,1839;0,215992
562,1481;0,214583
563,1124;0,213111
564,0766;0,211756
565,0408;0,210607
566,0051;0,20965
566,9693;0,208819
567,9335;0,208062
568,8978;0,207381
569,8620;0,206823
570,8262;0,206429
571,7905;0,20619
572,7547;0,206042
573,7189;0,205901
574,6832;0,205702
575,6474;0,205433
576,6116;0,205126
577,5759;0,204824
578,5401;0,204547
579,5043;0,204282
580,4686;0,203997
581,4328;0,203664
582,3970;0,203275
583,3613;0,202839
584,3255;0,202383
585,2897;0,201946
586,2540;0,20158
587,2182;0,201343
588,1824;0,201278
589,1467;0,201382
590,1109;0,201593
591,0751;0,201797
592,0394;0,201873
593,0036;0,201748
593,9678;0,201425
594,9321;0,200968
595,8963;0,200454
596,8605;0,199938
597,8248;0,199437
598,7890;0,198952
599,7532;0,198476
600,7175;0,198009
601,6817;0,19755
602,6459;0,197102
603,6102;0,19667
604,5744;0,196271
605,5386;0,195918
606,5029;0,195597
607,4671;0,195241
608,4313;0,194744
609,3956;0,19401
610,3598;0,193033
611,3240;0,191939
612,2883;0,190942
613,2525;0,19024
614,2167;0,189895
615,1810;0,18977
616,1452;0,189572
617,1094;0,188993
618,0737;0,187885
619,0379;0,18633
620,0021;0,184578
620,9664;0,182893
621,9306;0,181438
622,8948;0,180247
623,8591;0,17927
624,8233;0,17838
625,7875;0,177612
626,7518;0,176926
627,7160;0,176289
628,6802;0,17566
629,6445;0,175009
630,6087;0,174325
631,5729;0,173624
632,5372;0,172931
633,5014;0,172266
634,4656;0,17163
635,4299;0,17102
636,3941;0,170438
637,3583;0,169898
638,3226;0,169419
639,2868;0,169002
640,2510;0,168633
641,2153;0,168288
642,1795;0,167956
643,1437;0,167653
644,1080;0,167408
645,0722;0,167239
646,0364;0,167134
647,0007;0,167043
647,9649;0,166909
648,9291;0,166698
649,8934;0,166417
650,8576;0,166115
651,8218;0,165854
652,7861;0,16569
653,7503;0,165658
654,7145;0,165761
655,6788;0,165968
656,6430;0,166226
657,6072;0,166478
658,5715;0,166682
659,5357;0,166807
660,4999;0,166807
661,4642;0,166598
662,4284;0,166057
663,3926;0,165062
664,3569;0,163587
665,3211;0,161875
666,2853;0,160511
667,2496;0,160109
668,2138;0,160513
669,1780;0,160804
670,1423;0,16058
671,1065;0,15998
672,0707;0,158993
673,0350;0,157534
673,9992;0,155685
674,9634;0,153689
675,9277;0,151793
676,8919;0,150111
677,8561;0,148606
678,8204;0,147189
679,7846;0,145821
680,7488;0,14453
681,7131;0,14337
682,6773;0,142351
683,6415;0,141439
684,6058;0,140581
685,5700;0,139751
686,5342;0,138957
687,4985;0,138228
688,4627;0,137591
689,4269;0,137039
690,3912;0,136548
691,3554;0,136089
692,3196;0,135632
693,2839;0,135156
694,2481;0,134652
695,2123;0,134124
696,1766;0,133591
697,1408;0,133077
698,1050;0,132592
699,0693;0,132133
700,0335;0,13168
700,9977;0,131215
701,9620;0,130724
702,9262;0,130205
703,8904;0,129644
704,8547;0,129057
705,8189;0,128451
706,7831;0,127831
707,7474;0,127191
708,7116;0,126516
709,6758;0,125788
710,6401;0,124991
711,6043;0,124126
712,5685;0,123218
713,5328;0,12232
714,4970;0,121497
715,4612;0,119804
716,4255;0,119453
717,3897;0,119259
718,3539;0,119041
719,3182;0,118578
720,2824;0,117707
721,2466;0,116422
722,2109;0,114875
723,1751;0,113286
724,1393;0,111831
725,1036;0,110575
726,0678;0,109488
727,0320;0,108495
727,9963;0,107539
728,9605;0,106605
729,9247;0,105714
730,8890;0,104895
731,8532;0,104159
732,8174;0,103497
733,7817;0,10289
734,7459;0,102325
735,7101;0,101796
736,6744;0,101302
737,6386;0,10084
738,6028;0,100401
739,5671;0,0999716
740,5313;0,0995419
741,4955;0,0991036
742,4598;0,0986518
743,4240;0,0981842
744,3882;0,0977006
745,3525;0,0972043
746,3167;0,0967012
747,2809;0,0961973
748,2452;0,0956957
749,2094;0,0951961
750,1736;0,0946968
751,1379;0,0941989
752,1021;0,0937073
753,0663;0,0932276
754,0306;0,092759
754,9948;0,0922909
755,9590;0,0918064
756,9233;0,091292
757,8875;0,0907482
758,8517;0,0901936
759,8160;0,0896571
760,7802;0,0891637
761,7444;0,0887202
762,7087;0,0883113
763,6729;0,0879069
764,6371;0,087479
765,6014;0,0870177
766,5656;0,0865383
767,5298;0,0860744
768,4941;0,0856597
769,4583;0,0853073
770,4225;0,0849989
771,3868;0,0846912
772,3510;0,0843368
773,3152;0,0839095
774,2795;0,0834194
775,2437;0,0829067
776,2079;0,0824199
777,1722;0,0819897
778,1364;0,0816148
779,1006;0,0812683
780,0649;0,0809171
781,0291;0,0805425
781,9933;0,0801477
782,9576;0,0797505
783,9218;0,0793695
784,8860;0,0790137
785,8503;0,0786811
786,8145;0,0783654
787,7787;0,0780611
788,7430;0,0777646
789,7072;0,0774721
790,6714;0,0771788
791,6357;0,0768829
792,5999;0,0765901
793,5641;0,0763138
794,5284;0,0760672
795,4926;0,0758528
796,4568;0,0756579
797,4211;0,0754606
798,3853;0,0752432
799,3495;0,0750041
800,3138;0,0747568
801,2780;0,0745198
802,2422;0,0743032
803,2065;0,074103
804,1707;0,0739072
805,1349;0,0737074
806,0992;0,0735054
807,0634;0,0733118
808,0276;0,0731365
808,9919;0,072981
809,9561;0,0728382
810,9203;0,0726994
811,8846;0,0725614
812,8488;0,0724284
813,8130;0,0723061
814,7773;0,0721938
815,7415;0,0720817
816,7057;0,0719566
817,6700;0,0718112
818,6342;0,0716519
819,5984;0,0714963
820,5627;0,0713632
821,5269;0,0712614
822,4911;0,0711849
823,4554;0,0711195
824,4196;0,0710533
825,3839;0,070985
826,3481;0,0709221
827,3123;0,0708712
828,2766;0,0708278
829,2408;0,070774
830,2050;0,0706866
831,1693;0,0705501
832,1335;0,070365
833,0977;0,0701465
834,0620;0,0699146
835,0262;0,0696828
835,9904;0,0694538
836,9547;0,0692227
837,9189;0,0689845
838,8831;0,0687383
839,8474;0,0684861
840,8116;0,0682286
841,7758;0,067964
842,7401;0,0676914
843,7043;0,0674175
844,6685;0,0671592
845,6328;0,0669386
846,5970;0,0667717
847,5612;0,0666578
848,5255;0,0665783
849,4897;0,0665057
850,4539;0,0664188
851,4182;0,0663128
852,3824;0,0661994
853,3466;0,0660964
854,3109;0,0660148
855,2751;0,0659535
856,2393;0,0659031
857,2036;0,0658568
858,1678;0,0658185
859,1320;0,0658014
860,0963;0,0658182
861,0605;0,0658694
862,0247;0,0659399
862,9890;0,0660058
863,9532;0,0660492
864,9174;0,0660707
865,8817;0,0660896
866,8459;0,0661341
867,8101;0,0662254
868,7744;0,0663667
869,7386;0,0665434
870,7028;0,0667312
871,6671;0,0669072
872,6313;0,0670562
873,5955;0,0671713
874,5598;0,0672523
875,5240;0,0673039
876,4882;0,0673379
877,4525;0,0673728
878,4167;0,067432
879,3809;0,0675375
880,3452;0,0677067
881,3094;0,0679516
882,2736;0,0682827
883,2379;0,0687116
884,2021;0,0692488
885,1663;0,069897
886,1306;0,0706457
887,0948;0,0714715
888,0590;0,0723462
889,0233;0,0732454
889,9875;0,0741529
890,9517;0,0750562
891,9160;0,0759384
892,8802;0,0767735
893,8444;0,077529
894,8087;0,0781727
895,7729;0,0786799
896,7371;0,0790351
897,7014;0,0792297
898,6656;0,07926
899,6298;0,0791288
900,5941;0,0788487
901,5583;0,0784451
902,5225;0,0779531
903,4868;0,0774118
904,4510;0,0768583
905,4152;0,0763251
906,3795;0,0758396
907,3437;0,0754253
908,3079;0,0751001
909,2722;0,0748735
910,2364;0,0747456
911,2007;0,0747082
912,1649;0,0747484
913,1292;0,0748518
914,0934;0,0750052
915,0576;0,0751976
916,0219;0,075423
916,9861;0,0756826
917,9503;0,0759843
918,9146;0,0763375
919,8788;0,0767435
920,8430;0,0771883
921,8073;0,0776422
922,7715;0,078069
923,7357;0,0784404
924,7000;0,078746
925,6642;0,0789947
926,6284;0,0792052
927,5927;0,079394
928,5569;0,0795682
929,5211;0,0797257
930,4854;0,0798635
931,4496;0,0799845
932,4138;0,0801013
933,3781;0,0802326
934,3423;0,0803979
935,3065;0,0806118
936,2708;0,0808819
937,2350;0,0812094
938,1992;0,0815923
939,1635;0,0820297
940,1277;0,0825249
941,0919;0,0830881
942,0562;0,0837344
943,0204;0,0844795
943,9846;0,0853322
944,9489;0,0862901
945,9131;0,0873392
946,8773;0,0884598
947,8416;0,0896362
948,8058;0,0908641
949,7700;0,0921532
950,7343;0,0935224
951,6985;0,0949913
952,6627;0,0965718
953,6270;0,098264
954,5912;0,100057
955,5554;0,101935
956,5197;0,10388
957,4839;0,105883
958,4481;0,107938
959,4124;0,110045
960,3766;0,112201
961,3408;0,114403
962,3051;0,116637
963,2693;0,118883
964,2335;0,121119
965,1978;0,12333
966,1620;0,125519
967,1262;0,127711
968,0905;0,129954
969,0547;0,132306
970,0189;0,134822
970,9832;0,137532
971,9474;0,140446
972,9116;0,143556
973,8759;0,146854
974,8401;0,150347
975,8043;0,154057
976,7686;0,158007
977,7328;0,162197
978,6970;0,166587
979,6613;0,17109
980,6255;0,17558
981,5897;0,179915
982,5540;0,183969
983,5182;0,18765
984,4824;0,190914
985,4467;0,193767
986,4109;0,196252
987,3751;0,198433
988,3394;0,200373
989,3036;0,202125
990,2678;0,203722
991,2321;0,205181
992,1963;0,206505
993,1605;0,207695
994,1248;0,208758
995,0890;0,209706
996,0532;0,210561
997,0175;0,211349
997,9817;0,212092
998,9459;0,212809
999,9102;0,213513
1000,8744;0,214219
1001,8386;0,214955
1002,8029;0,215763
1003,7671;0,216697
1004,7313;0,217815
1005,6956;0,219161
1006,6598;0,220762
1007,6240;0,222623
1008,5883;0,224738
1009,5525;0,227092
1010,5167;0,229655
1011,4810;0,232379
1012,4452;0,235186
1013,4094;0,237982
1014,3737;0,240668
1015,3379;0,243167
1016,3021;0,245434
1017,2664;0,247458
1018,2306;0,249254
1019,1948;0,250851
1020,1591;0,252283
1021,1233;0,253586
1022,0875;0,254799
1023,0518;0,255954
1024,0160;0,257072
1024,9802;0,25816
1025,9445;0,259207
1026,9087;0,260191
1027,8729;0,261075
1028,8372;0,261803
1029,8014;0,262289
1030,7656;0,262421
1031,7299;0,262075
1032,6941;0,261155
1033,6583;0,25962
1034,6226;0,257514
1035,5868;0,25497
1036,5510;0,25218
1037,5153;0,249367
1038,4795;0,246738
1039,4437;0,244458
1040,4080;0,242623
1041,3722;0,241263
1042,3364;0,240343
1043,3007;0,239788
1044,2649;0,239494
1045,2291;0,239351
1046,1934;0,239255
1047,1576;0,239109
1048,1218;0,238829
1049,0861;0,238342
1050,0503;0,237589
1051,0145;0,236533
1051,9788;0,235162
1052,9430;0,233493
1053,9072;0,231562
1054,8715;0,229406
1055,8357;0,227037
1056,7999;0,224425
1057,7642;0,2215
1058,7284;0,218187
1059,6926;0,214441
1060,6569;0,21029
1061,6211;0,205846
1062,5853;0,201286
1063,5496;0,196808
1064,5138;0,192585
1065,4780;0,188727
1066,4423;0,185274
1067,4065;0,182211
1068,3707;0,179482
1069,3350;0,177019
1070,2992;0,174751
1071,2634;0,172607
1072,2277;0,170516
1073,1919;0,168409
1074,1561;0,166225
1075,1204;0,163922
1076,0846;0,161484
1077,0488;0,158935
1078,0131;0,156329
1078,9773;0,153744
1079,9415;0,151263
1080,9058;0,148959
1081,8700;0,14688
1082,8342;0,145045
1083,7985;0,143448
1084,7627;0,142067
1085,7269;0,140874
1086,6912;0,139846
1087,6554;0,13897
1088,6196;0,138239
1089,5839;0,137653
1090,5481;0,13721
1091,5123;0,136907
1092,4766;0,136742
1093,4408;0,136712
1094,4050;0,136818
1095,3693;0,137059
1096,3335;0,137424
1097,2977;0,137891
1098,2620;0,138425
1099,2262;0,138986
1100,1904;0,139529
1101,1547;0,140011
1102,1189;0,140396
1103,0831;0,140651
1104,0474;0,14076
1105,0116;0,14072
1105,9758;0,140552
1106,9401;0,140283
1107,9043;0,139933
1108,8685;0,13949
1109,8328;0,138904
1110,7970;0,138096
1111,7612;0,136996
1112,7255;0,135577
1113,6897;0,133881
1114,6539;0,132009
1115,6182;0,130092
1116,5824;0,12825
1117,5466;0,126562
1118,5109;0,125055
1119,4751;0,123703
1120,4393;0,122442
1121,4036;0,121183
1122,3678;0,11983
1123,3320;0,118297
1124,2963;0,116524
1125,2605;0,114499
1126,2247;0,112251
1127,1890;0,109844
1128,1532;0,107356
1129,1174;0,104853
1130,0817;0,102378
1131,0459;0,0999538
1132,0101;0,097593
1132,9744;0,0953132
1133,9386;0,0931473
1134,9028;0,0911451
1135,8671;0,0893651
1136,8313;0,0878613
1137,7955;0,0866696
1138,7598;0,0858001
1139,7240;0,0852364
1140,6882;0,0849425
1141,6525;0,0848728
1142,6167;0,0849807
1143,5809;0,0852253
1144,5452;0,0855739
1145,5094;0,0860038
1146,4736;0,0865024
1147,4379;0,0870667
1148,4021;0,0876994
1149,3663;0,0884017
1150,3306;0,0891649
1151,2948;0,0899648
1152,2590;0,0907621
1153,2233;0,0915092
1154,1875;0,092159
1155,1517;0,0926698
1156,1160;0,0930038
1157,0802;0,0931194
1158,0444;0,0929624
1159,0087;0,0924629
1159,9729;0,0915417
1160,9371;0,0901272
1161,9014;0,0881784
1162,8656;0,0857039
1163,8298;0,0827701
1164,7941;0,0794934
1165,7583;0,0760206
1166,7225;0,0725024
1167,6868;0,0690718
1168,6510;0,0658305
1169,6152;0,062846
1170,5795;0,0601551
1171,5437;0,0577703
1172,5079;0,0556855
1173,4722;0,0538813
1174,4364;0,0523291
1175,4006;0,0509968
1176,3649;0,0498535
1177,3291;0,0488732
1178,2933;0,0480359
1179,2576;0,0473259
1180,2218;0,0467303
1181,1860;0,046238
1182,1503;0,04584
1183,1145;0,0455299
1184,0787;0,0453039
1185,0430;0,0451597
1186,0072;0,0450958
1186,9714;0,0451113
1187,9357;0,0452061
1188,8999;0,0453825
1189,8641;0,0456439
1190,8284;0,0459946
1191,7926;0,0464377
1192,7568;0,0469739
1193,7211;0,0476003
1194,6853;0,04831
1195,6495;0,0490909
1196,6138;0,049926
1197,5780;0,0507937
1198,5422;0,0516718
1199,5065;0,0523585
1200,4707;0,0532298
1201,4349;0,0540795
1202,3992;0,0549091
1203,3634;0,0557204
1204,3276;0,0565109
1205,2919;0,0572727
1206,2561;0,0579967
1207,2203;0,0586798
1208,1846;0,059332
1209,1488;0,0599784
1210,1130;0,0606545
1211,0773;0,0613958
1212,0415;0,0622274
1213,0057;0,0631566
1213,9700;0,0641735
1214,9342;0,0652571
1215,8984;0,0663828
1216,8627;0,0675268
1217,8269;0,0686674
1218,7911;0,0697874
1219,7554;0,0708731
1220,7196;0,0719153
1221,6838;0,0729097
1222,6481;0,0738555
1223,6123;0,0747531
1224,5765;0,0756014
1225,5408;0,0763979
1226,5050;0,0771411
1227,4692;0,0778321
1228,4335;0,0784746
1229,3977;0,0790723
1230,3619;0,0796241
1231,3262;0,0801229
1232,2904;0,0805568
1233,2546;0,0809148
1234,2189;0,0811918
1235,1831;0,0813924
1236,1473;0,0815299
1237,1116;0,0816222
1238,0758;0,0816851
1239,0400;0,081727
1240,0043;0,081746
1240,9685;0,0817316
1241,9327;0,0816693
1242,8970;0,0815466
1243,8612;0,0813562
1244,8254;0,0810967
1245,7897;0,0807709
1246,7539;0,0803848
1247,7181;0,0799474
1248,6824;0,0794726
1249,6466;0,0789791
1250,6108;0,078488
1251,5751;0,0780177
1252,5393;0,0775791
1253,5035;0,0771729
1254,4678;0,0767903
1255,4320;0,0764162
1256,3962;0,0760331
1257,3605;0,0756242
1258,3247;0,0751759
1259,2889;0,0746806
1260,2532;0,0741365
1261,2174;0,0735478
1262,1816;0,0729212
1263,1459;0,0722637
1264,1101;0,0715804
1265,0743;0,070875
1266,0386;0,0701497
1267,0028;0,0694051
1267,9670;0,0686401
1268,9313;0,0678522
1269,8955;0,0670395
1270,8597;0,0662026
1271,8240;0,0653471
1272,7882;0,0644826
1273,7524;0,0636219
1274,7167;0,062779
1275,6809;0,0619671
1276,6451;0,0611955
1277,6094;0,0604661
1278,5736;0,0597713
1279,5378;0,0590958
1280,5021;0,0584233
1281,4663;0,057745
1282,4305;0,0570646
1283,3948;0,0563967
1284,3590;0,0557596
1285,3232;0,0551689
1286,2875;0,0546332
1287,2517;0,0541554
1288,2159;0,0537363
1289,1802;0,0533767
1290,1444;0,0530785
1291,1086;0,0528431
1292,0729;0,0526719
1293,0371;0,0525674
1294,0013;0,052534
1294,9656;0,0525769
1295,9298;0,0527001
1296,8940;0,0529036
1297,8583;0,0531846
1298,8225;0,0535384
1299,7867;0,0539613
1300,7510;0,0544499
1301,7152;0,0550027
1302,6794;0,0556155
1303,6437;0,0562817
1304,6079;0,056995
1305,5721;0,0577499
1306,5364;0,0585418
1307,5006;0,0593657
1308,4648;0,0602148
1309,4291;0,0610783
1310,3933;0,0619405
1311,3575;0,0627796
1312,3218;0,0635692
1313,2860;0,0642818
1314,2502;0,0648911
1315,2145;0,0653725
1316,1787;0,0657021
1317,1429;0,0658594
1318,1072;0,0658366
1319,0714;0,06565
1320,0356;0,0653436
1320,9999;0,0649777
1321,9641;0,0646089
1322,9283;0,0642762
1323,8926;0,0639996
1324,8568;0,0637846
1325,8210;0,063628
1326,7853;0,0635198
1327,7495;0,0634434
1328,7137;0,0633792
1329,6780;0,0633077
1330,6422;0,0632148
1331,6064;0,063094
1332,5707;0,0629433
1333,5349;0,062762
1334,4991;0,0625433
1335,4634;0,0622689
1336,4276;0,0619076
1337,3918;0,0614207
1338,3561;0,0607833
1339,3203;0,0600161
1340,2845;0,0591972
1341,2488;0,0584248
1342,2130;0,0577625
1343,1772;0,0572218
1344,1415;0,0567838
1345,1057;0,0564293
1346,0699;0,0561543
1347,0342;0,0559696
1347,9984;0,055894
1348,9626;0,0559425
1349,9269;0,056116
1350,8911;0,0563961
1351,8553;0,0567507
1352,8196;0,0571455
1353,7838;0,0575581
1354,7480;0,0579862
1355,7123;0,0584436
1356,6765;0,0589467
1357,6407;0,0595025
1358,6050;0,0601059
1359,5692;0,0607422
