TITLE;
DATA TYPE;INFRARED SPECTRUM
ORIGIN;JASCO
OWNER;
DATE;25/03/19
TIME;14:32:00
SPECTROMETER/DATA SYSTEM;
LOCALE;9226
RESOLUTION;
DELTAX;0,964233
XUNITS;1/CM
YUNITS;ABSORBANCE
FIRSTX;  399,1927
LASTX; 4000,6047
NPOINTS;    3736
FIRSTY;     0,25363
MAXY;     0,26414
MINY;    -0,00573
XYDATA
399,1927;0,253632
400,1569;0,251429
401,1211;0,248704
402,0854;0,24571
403,0496;0,242628
404,0138;0,239673
404,9781;0,237143
405,9423;0,235362
406,9065;0,234496
407,8708;0,234419
408,8350;0,234725
409,7992;0,234916
410,7635;0,234653
411,7277;0,233954
412,6919;0,233182
413,6562;0,232818
414,6204;0,233209
415,5846;0,234434
416,5489;0,236238
417,5131;0,237962
418,4773;0,238694
419,4416;0,237995
420,4058;0,23646
421,3700;0,235056
422,3343;0,23427
423,2985;0,234067
424,2627;0,234202
425,2270;0,234457
426,1912;0,234746
427,1554;0,235104
428,1197;0,235596
429,0839;0,236202
430,0481;0,236789
431,0124;0,237163
431,9766;0,23717
432,9408;0,236783
433,9051;0,236112
434,8693;0,235341
435,8335;0,234625
436,7978;0,234017
437,7620;0,233464
438,7262;0,232877
439,6905;0,232216
440,6547;0,231537
441,6189;0,230976
442,5832;0,230665
443,5474;0,230624
444,5116;0,230716
445,4759;0,230721
446,4401;0,230464
447,4043;0,229911
448,3686;0,229175
449,3328;0,228474
450,2970;0,228054
451,2613;0,228098
452,2255;0,228639
453,1897;0,229531
454,1540;0,230487
455,1182;0,231175
456,0824;0,231335
457,0467;0,2309
458,0109;0,230074
458,9751;0,229218
459,9394;0,228616
460,9036;0,228321
461,8678;0,228213
462,8321;0,228139
463,7963;0,227992
464,7605;0,227728
465,7248;0,227353
466,6890;0,226922
467,6532;0,226529
468,6175;0,226306
469,5817;0,226368
470,5459;0,226739
471,5102;0,227276
472,4744;0,227692
473,4386;0,227723
474,4029;0,227323
475,3671;0,226682
476,3313;0,22609
477,2956;0,225765
478,2598;0,225762
479,2240;0,22597
480,1883;0,226181
481,1525;0,226204
482,1167;0,225959
483,0810;0,225526
484,0452;0,225109
485,0094;0,224929
485,9737;0,225098
486,9379;0,225559
487,9021;0,226125
488,8664;0,226573
489,8306;0,226746
490,7948;0,226611
491,7591;0,226263
492,7233;0,225875
493,6875;0,225609
494,6518;0,225551
495,6160;0,225699
496,5802;0,226002
497,5445;0,226392
498,5087;0,226804
499,4729;0,227182
500,4372;0,227477
501,4014;0,22766
502,3656;0,227737
503,3299;0,227743
504,2941;0,22773
505,2583;0,227749
506,2226;0,227837
507,1868;0,22802
508,1510;0,228311
509,1153;0,228704
510,0795;0,229175
511,0437;0,229695
512,0080;0,230246
512,9722;0,230831
513,9365;0,231457
514,9007;0,232113
515,8649;0,232726
516,8292;0,233166
517,7934;0,233295
518,7576;0,233062
519,7219;0,232561
520,6861;0,231988
521,6503;0,231545
522,6146;0,231348
523,5788;0,231398
524,5430;0,231583
525,5073;0,231728
526,4715;0,231675
527,4357;0,231361
528,4000;0,230844
529,3642;0,230241
530,3284;0,229665
531,2927;0,229177
532,2569;0,228771
533,2211;0,228394
534,1854;0,227976
535,1496;0,227467
536,1138;0,226867
537,0781;0,226229
538,0423;0,225631
539,0065;0,225152
539,9708;0,224839
540,9350;0,224704
541,8992;0,22473
542,8635;0,224888
543,8277;0,225142
544,7919;0,225455
545,7562;0,225795
546,7204;0,226139
547,6846;0,226478
548,6489;0,226815
549,6131;0,227147
550,5773;0,227456
551,5416;0,227717
552,5058;0,227915
553,4700;0,228066
554,4343;0,228204
555,3985;0,228351
556,3627;0,228467
557,3270;0,228439
558,2912;0,228113
559,2554;0,227371
560,2197;0,226202
561,1839;0,224725
562,1481;0,223147
563,1124;0,221676
564,0766;0,220442
565,0408;0,219465
566,0051;0,218677
566,9693;0,217985
567,9335;0,217314
568,8978;0,21664
569,8620;0,215974
570,8262;0,215338
571,7905;0,214748
572,7547;0,214212
573,7189;0,213739
574,6832;0,213341
575,6474;0,213019
576,6116;0,212754
577,5759;0,212501
578,5401;0,212205
579,5043;0,211835
580,4686;0,211397
581,4328;0,210931
582,3970;0,210478
583,3613;0,210058
584,3255;0,209653
585,2897;0,209237
586,2540;0,208802
587,2182;0,208378
588,1824;0,208024
589,1467;0,207793
590,1109;0,207704
591,0751;0,207731
592,0394;0,207808
593,0036;0,20786
593,9678;0,207824
594,9321;0,20766
595,8963;0,207347
596,8605;0,20689
597,8248;0,206319
598,7890;0,205694
599,7532;0,205083
600,7175;0,204533
601,6817;0,204052
602,6459;0,203612
603,6102;0,203181
604,5744;0,202747
605,5386;0,202322
606,5029;0,201922
607,4671;0,201526
608,4313;0,201073
609,3956;0,200483
610,3598;0,199716
611,3240;0,19881
612,2883;0,197879
613,2525;0,197061
614,2167;0,196437
615,1810;0,195965
616,1452;0,195482
617,1094;0,194763
618,0737;0,193647
619,0379;0,192129
620,0021;0,190358
620,9664;0,188561
621,9306;0,186934
622,8948;0,185588
623,8591;0,184531
624,8233;0,183657
625,7875;0,182955
626,7518;0,182341
627,7160;0,181758
628,6802;0,181176
629,6445;0,180582
630,6087;0,179968
631,5729;0,179331
632,5372;0,178673
633,5014;0,177996
634,4656;0,177317
635,4299;0,176659
636,3941;0,176051
637,3583;0,175519
638,3226;0,175074
639,2868;0,174708
640,2510;0,174399
641,2153;0,174124
642,1795;0,173865
643,1437;0,17362
644,1080;0,173392
645,0722;0,173179
646,0364;0,172964
647,0007;0,172721
647,9649;0,172428
648,9291;0,172082
649,8934;0,171712
650,8576;0,171372
651,8218;0,171122
652,7861;0,171015
653,7503;0,171075
654,7145;0,171294
655,6788;0,17162
656,6430;0,17197
657,6072;0,172266
658,5715;0,17245
659,5357;0,172492
660,4999;0,172375
661,4642;0,172073
662,4284;0,171534
663,3926;0,170687
664,3569;0,169521
665,3211;0,168224
666,2853;0,167226
667,2496;0,166891
668,2138;0,166891
669,1780;0,166479
670,1423;0,165622
671,1065;0,164653
672,0707;0,16355
673,0350;0,162151
673,9992;0,160444
674,9634;0,158586
675,9277;0,156769
676,8919;0,155093
677,8561;0,15355
678,8204;0,152089
679,7846;0,1507
680,7488;0,14942
681,7131;0,148297
682,6773;0,147334
683,6415;0,14648
684,6058;0,145674
685,5700;0,144883
686,5342;0,144113
687,4985;0,143394
688,4627;0,142755
689,4269;0,142194
690,3912;0,141693
691,3554;0,141232
692,3196;0,140793
693,2839;0,140366
694,2481;0,139937
695,2123;0,1395
696,1766;0,13905
697,1408;0,138583
698,1050;0,138095
699,0693;0,137581
700,0335;0,137036
700,9977;0,136465
701,9620;0,135881
702,9262;0,135306
703,8904;0,134739
704,8547;0,134179
705,8189;0,133602
706,7831;0,13297
707,7474;0,132251
708,7116;0,13144
709,6758;0,130556
710,6401;0,129637
711,6043;0,128719
712,5685;0,127824
713,5328;0,126967
714,4970;0,126166
715,4612;0,124541
716,4255;0,124078
717,3897;0,123724
718,3539;0,123339
719,3182;0,122729
720,2824;0,121743
721,2466;0,120372
722,2109;0,11876
723,1751;0,117125
724,1393;0,11565
725,1036;0,114411
726,0678;0,113377
727,0320;0,112461
727,9963;0,111579
728,9605;0,110691
729,9247;0,109807
730,8890;0,108958
731,8532;0,108168
732,8174;0,107442
733,7817;0,10677
734,7459;0,106142
735,7101;0,105555
736,6744;0,105017
737,6386;0,10454
738,6028;0,104123
739,5671;0,103754
740,5313;0,103402
741,4955;0,103037
742,4598;0,102634
743,4240;0,102184
744,3882;0,101696
745,3525;0,101185
746,3167;0,100665
747,2809;0,100146
748,2452;0,0996301
749,2094;0,0991169
750,1736;0,0986078
751,1379;0,0981047
752,1021;0,0976073
753,0663;0,0971114
754,0306;0,0966102
754,9948;0,0960992
755,9590;0,0955812
756,9233;0,0950653
757,8875;0,0945631
758,8517;0,0940812
759,8160;0,0936184
760,7802;0,0931674
761,7444;0,0927197
762,7087;0,0922703
763,6729;0,0918181
764,6371;0,0913645
765,6014;0,0909136
766,5656;0,0904733
767,5298;0,0900561
768,4941;0,0896746
769,4583;0,0893309
770,4225;0,0890071
771,3868;0,0886654
772,3510;0,0882616
773,3152;0,0877683
774,2795;0,0871918
775,2437;0,0865741
776,2079;0,0859749
777,1722;0,0854442
778,1364;0,0850017
779,1006;0,0846321
780,0649;0,0842986
781,0291;0,0839621
781,9933;0,0835969
782,9576;0,0831941
783,9218;0,0827566
784,8860;0,0822936
785,8503;0,0818185
786,8145;0,0813504
787,7787;0,0809147
788,7430;0,0805353
789,7072;0,0802242
790,6714;0,0799724
791,6357;0,079752
792,5999;0,0795291
793,5641;0,0792796
794,5284;0,0789991
795,4926;0,078699
796,4568;0,0783942
797,4211;0,0780926
798,3853;0,0777938
799,3495;0,0774959
800,3138;0,0772046
801,2780;0,0769324
802,2422;0,0766911
803,2065;0,07648
804,1707;0,0762838
805,1349;0,0760794
806,0992;0,0758499
807,0634;0,0755947
808,0276;0,0753299
808,9919;0,0750791
809,9561;0,0748617
810,9203;0,0746851
811,8846;0,0745436
812,8488;0,0744235
813,8130;0,0743095
814,7773;0,0741897
815,7415;0,0740587
816,7057;0,0739173
817,6700;0,0737706
818,6342;0,073625
819,5984;0,0734848
820,5627;0,0733508
821,5269;0,0732207
822,4911;0,0730929
823,4554;0,0729685
824,4196;0,0728519
825,3839;0,0727468
826,3481;0,0726518
827,3123;0,0725572
828,2766;0,0724479
829,2408;0,0723098
830,2050;0,0721383
831,1693;0,0719419
832,1335;0,0717391
833,0977;0,0715489
834,0620;0,0713805
835,0262;0,071228
835,9904;0,0710735
836,9547;0,0708969
837,9189;0,070686
838,8831;0,0704413
839,8474;0,0701732
840,8116;0,0698948
841,7758;0,0696157
842,7401;0,0693412
843,7043;0,0690768
844,6685;0,0688332
845,6328;0,0686264
846,5970;0,0684718
847,5612;0,0683752
848,5255;0,068326
849,4897;0,0682993
850,4539;0,0682643
851,4182;0,0681982
852,3824;0,068096
853,3466;0,0679717
854,3109;0,0678511
855,2751;0,0677595
856,2393;0,0677103
857,2036;0,0677009
858,1678;0,0677165
859,1320;0,0677383
860,0963;0,0677516
861,0605;0,0677503
862,0247;0,0677364
862,9890;0,0677165
863,9532;0,0676998
864,9174;0,0676959
865,8817;0,0677149
866,8459;0,0677654
867,8101;0,0678518
868,7744;0,0679734
869,7386;0,0681241
870,7028;0,0682959
871,6671;0,0684807
872,6313;0,0686708
873,5955;0,068856
874,5598;0,0690222
875,5240;0,0691538
876,4882;0,069242
877,4525;0,0692938
878,4167;0,0693362
879,3809;0,0694111
880,3452;0,0695625
881,3094;0,0698236
882,2736;0,0702091
883,2379;0,0707172
884,2021;0,0713373
885,1663;0,072057
886,1306;0,072865
887,0948;0,0737489
888,0590;0,0746918
889,0233;0,0756716
889,9875;0,0766619
890,9517;0,077636
891,9160;0,0785684
892,8802;0,0794351
893,8444;0,080213
894,8087;0,0808787
895,7729;0,0814102
896,7371;0,0817877
897,7014;0,0819978
898,6656;0,0820361
899,6298;0,0819116
900,5941;0,0816467
901,5583;0,0812749
902,5225;0,0808337
903,4868;0,0803568
904,4510;0,0798694
905,4152;0,0793894
906,3795;0,0789331
907,3437;0,078521
908,3079;0,0781784
909,2722;0,0779303
910,2364;0,0777935
911,2007;0,0777702
912,1649;0,0778487
913,1292;0,0780087
914,0934;0,0782289
915,0576;0,0784935
916,0219;0,0787944
916,9861;0,0791303
917,9503;0,0795033
918,9146;0,079914
919,8788;0,0803563
920,8430;0,0808156
921,8073;0,0812701
922,7715;0,0816965
923,7357;0,0820782
924,7000;0,0824107
925,6642;0,0827016
926,6284;0,0829646
927,5927;0,0832113
928,5569;0,0834463
929,5211;0,0836667
930,4854;0,0838663
931,4496;0,0840418
932,4138;0,0841964
933,3781;0,0843419
934,3423;0,0844986
935,3065;0,0846927
936,2708;0,0849517
937,2350;0,0852978
938,1992;0,08574
939,1635;0,0862715
940,1277;0,0868736
941,0919;0,0875271
942,0562;0,0882257
943,0204;0,0889814
943,9846;0,0898202
944,9489;0,090768
945,9131;0,0918355
946,8773;0,0930129
947,8416;0,0942759
948,8058;0,0956016
949,7700;0,0969827
950,7343;0,0984319
951,6985;0,0999743
952,6627;0,101633
953,6270;0,103418
954,5912;0,105318
955,5554;0,10731
956,5197;0,109365
957,4839;0,111463
958,4481;0,113596
959,4124;0,115766
960,3766;0,11798
961,3408;0,120243
962,3051;0,122553
963,2693;0,124899
964,2335;0,127265
965,1978;0,129639
966,1620;0,132022
967,1262;0,134429
968,0905;0,136891
969,0547;0,139442
970,0189;0,142115
970,9832;0,144934
971,9474;0,147923
972,9116;0,151106
973,8759;0,154513
974,8401;0,158175
975,8043;0,162107
976,7686;0,166298
977,7328;0,170704
978,6970;0,175251
979,6613;0,179843
980,6255;0,18437
981,5897;0,188726
982,5540;0,192809
983,5182;0,196542
984,4824;0,199883
985,4467;0,202832
986,4109;0,205433
987,3751;0,207754
988,3394;0,209867
989,3036;0,21182
990,2678;0,213628
991,2321;0,215278
992,1963;0,216752
993,1605;0,21804
994,1248;0,219157
995,0890;0,220137
996,0532;0,221017
997,0175;0,221819
997,9817;0,222546
998,9459;0,223192
999,9102;0,223756
1000,8744;0,224266
1001,8386;0,224778
1002,8029;0,225372
1003,7671;0,22613
1004,7313;0,227115
1005,6956;0,228367
1006,6598;0,229896
1007,6240;0,231699
1008,5883;0,233762
1009,5525;0,236064
1010,5167;0,238571
1011,4810;0,241227
1012,4452;0,24395
1013,4094;0,24664
1014,3737;0,249187
1015,3379;0,251497
1016,3021;0,253508
1017,2664;0,255201
1018,2306;0,256598
1019,1948;0,257752
1020,1591;0,258732
1021,1233;0,259599
1022,0875;0,260396
1023,0518;0,261143
1024,0160;0,261837
1024,9802;0,262462
1025,9445;0,263008
1026,9087;0,263466
1027,8729;0,26383
1028,8372;0,264074
1029,8014;0,264141
1030,7656;0,263935
1031,7299;0,263337
1032,6941;0,262245
1033,6583;0,260608
1034,6226;0,258465
1035,5868;0,255938
1036,5510;0,25322
1037,5153;0,250528
1038,4795;0,248059
1039,4437;0,245959
1040,4080;0,2443
1041,3722;0,243086
1042,3364;0,242262
1043,3007;0,24174
1044,2649;0,241414
1045,2291;0,241189
1046,1934;0,240983
1047,1576;0,240732
1048,1218;0,240383
1049,0861;0,23988
1050,0503;0,239169
1051,0145;0,238194
1051,9788;0,23692
1052,9430;0,235339
1053,9072;0,233478
1054,8715;0,231381
1055,8357;0,229078
1056,7999;0,226561
1057,7642;0,223779
1058,7284;0,220662
1059,6926;0,217168
1060,6569;0,213321
1061,6211;0,209229
1062,5853;0,205058
1063,5496;0,200989
1064,5138;0,197172
1065,4780;0,193698
1066,4423;0,190594
1067,4065;0,18784
1068,3707;0,185386
1069,3350;0,183168
1070,2992;0,18111
1071,2634;0,179131
1072,2277;0,177146
1073,1919;0,17508
1074,1561;0,172875
1075,1204;0,170502
1076,0846;0,167963
1077,0488;0,165295
1078,0131;0,162563
1078,9773;0,159852
1079,9415;0,157252
1080,9058;0,154837
1081,8700;0,152652
1082,8342;0,150709
1083,7985;0,148994
1084,7627;0,147483
1085,7269;0,146158
1086,6912;0,145009
1087,6554;0,144037
1088,6196;0,14324
1089,5839;0,142614
1090,5481;0,142146
1091,5123;0,14182
1092,4766;0,141622
1093,4408;0,14154
1094,4050;0,141568
1095,3693;0,141699
1096,3335;0,141924
1097,2977;0,142228
1098,2620;0,142586
1099,2262;0,142962
1100,1904;0,143314
1101,1547;0,143599
1102,1189;0,143779
1103,0831;0,143826
1104,0474;0,143731
1105,0116;0,1435
1105,9758;0,143157
1106,9401;0,14273
1107,9043;0,142236
1108,8685;0,141661
1109,8328;0,140958
1110,7970;0,140048
1111,7612;0,138856
1112,7255;0,137344
1113,6897;0,135542
1114,6539;0,13355
1115,6182;0,131509
1116,5824;0,129557
1117,5466;0,127787
1118,5109;0,126223
1119,4751;0,124823
1120,4393;0,123499
1121,4036;0,122148
1122,3678;0,120677
1123,3320;0,119022
1124,2963;0,117151
1125,2605;0,115069
1126,2247;0,112808
1127,1890;0,110421
1128,1532;0,107969
1129,1174;0,105512
1130,0817;0,103096
1131,0459;0,100753
1132,0101;0,0985048
1132,9744;0,09637
1133,9386;0,094373
1134,9028;0,0925489
1135,8671;0,0909402
1136,8313;0,089588
1137,7955;0,0885212
1138,7598;0,0877493
1139,7240;0,0872618
1140,6882;0,0870343
1141,6525;0,087036
1142,6167;0,087235
1143,5809;0,0875994
1144,5452;0,0880958
1145,5094;0,0886898
1146,4736;0,0893499
1147,4379;0,0900538
1148,4021;0,0907906
1149,3663;0,0915567
1150,3306;0,0923453
1151,2948;0,0931362
1152,2590;0,0938921
1153,2233;0,0945645
1154,1875;0,0951054
1155,1517;0,0954752
1156,1160;0,0956432
1157,0802;0,095577
1158,0444;0,095231
1159,0087;0,0945402
1159,9729;0,0934275
1160,9371;0,0918217
1161,9014;0,0896819
1162,8656;0,0870176
1163,8298;0,0838956
1164,7941;0,0804338
1165,7583;0,0767815
1166,7225;0,0730949
1167,6868;0,0695139
1168,6510;0,0661465
1169,6152;0,0630612
1170,5795;0,0602898
1171,5437;0,0578352
1172,5079;0,0556813
1173,4722;0,0538023
1174,4364;0,0521688
1175,4006;0,0507515
1176,3649;0,0495234
1177,3291;0,0484605
1178,2933;0,0475424
1179,2576;0,0467526
1180,2218;0,0460781
1181,1860;0,0455096
1182,1503;0,0450403
1183,1145;0,0446661
1184,0787;0,0443838
1185,0430;0,0441916
1186,0072;0,044089
1186,9714;0,0440773
1187,9357;0,0441594
1188,8999;0,0443393
1189,8641;0,0446192
1190,8284;0,0449981
1191,7926;0,0454707
1192,7568;0,0460298
1193,7211;0,0466682
1194,6853;0,0473798
1195,6495;0,0481581
1196,6138;0,048992
1197,5780;0,0498632
1198,5422;0,050747
1199,5065;0,0514581
1200,4707;0,0523121
1201,4349;0,0531212
1202,3992;0,0538825
1203,3634;0,0545984
1204,3276;0,0552706
1205,2919;0,055898
1206,2561;0,0564789
1207,2203;0,0570174
1208,1846;0,0575286
1209,1488;0,0580401
1210,1130;0,0585864
1211,0773;0,0592003
1212,0415;0,0599042
1213,0057;0,0607054
1213,9700;0,0615975
1214,9342;0,0625653
1215,8984;0,0635901
1216,8627;0,0646525
1217,8269;0,0657322
1218,7911;0,0668109
1219,7554;0,0678722
1220,7196;0,068903
1221,6838;0,0698953
1222,6481;0,0708454
1223,6123;0,0717531
1224,5765;0,0726196
1225,5408;0,0734466
1226,5050;0,0742353
1227,4692;0,074985
1228,4335;0,0756924
1229,3977;0,0763508
1230,3619;0,0769515
1231,3262;0,0774855
1232,2904;0,0779464
1233,2546;0,0783327
1234,2189;0,0786484
1235,1831;0,0789026
1236,1473;0,0791072
1237,1116;0,0792735
1238,0758;0,0794088
1239,0400;0,0795131
1240,0043;0,0795796
1240,9685;0,0795972
1241,9327;0,0795566
1242,8970;0,0794532
1243,8612;0,0792885
1244,8254;0,0790665
1245,7897;0,078791
1246,7539;0,0784645
1247,7181;0,0780915
1248,6824;0,0776815
1249,6466;0,0772499
1250,6108;0,0768144
1251,5751;0,0763896
1252,5393;0,0759834
1253,5035;0,0755977
1254,4678;0,0752306
1255,4320;0,0748778
1256,3962;0,0745319
1257,3605;0,0741804
1258,3247;0,0738055
1259,2889;0,0733886
1260,2532;0,0729176
1261,2174;0,072391
1262,1816;0,0718167
1263,1459;0,0712055
1264,1101;0,070565
1265,0743;0,0698968
1266,0386;0,0691996
1267,0028;0,0684735
1267,9670;0,0677227
1268,9313;0,0669541
1269,8955;0,0661747
1270,8597;0,0653886
1271,8240;0,0645969
1272,7882;0,0638005
1273,7524;0,063004
1274,7167;0,0622168
1275,6809;0,0614506
1276,6451;0,0607142
1277,6094;0,0600075
1278,5736;0,0593202
1279,5378;0,0586364
1280,5021;0,0579441
1281,4663;0,0572439
1282,4305;0,0565506
1283,3948;0,0558871
1284,3590;0,0552745
1285,3232;0,0547245
1286,2875;0,0542388
1287,2517;0,0538128
1288,2159;0,0534422
1289,1802;0,0531254
1290,1444;0,0528627
1291,1086;0,0526547
1292,0729;0,0525021
1293,0371;0,0524086
1294,0013;0,0523825
1294,9656;0,0524353
1295,9298;0,0525769
1296,8940;0,0528098
1297,8583;0,0531269
1298,8225;0,0535153
1299,7867;0,053962
1300,7510;0,0544589
1301,7152;0,0550056
1302,6794;0,0556038
1303,6437;0,056254
1304,6079;0,0569543
1305,5721;0,0576989
1306,5364;0,0584798
1307,5006;0,0592882
1308,4648;0,0601158
1309,4291;0,0609531
1310,3933;0,0617881
1311,3575;0,0626042
1312,3218;0,0633784
1313,2860;0,0640831
1314,2502;0,0646871
1315,2145;0,0651569
1316,1787;0,06546
1317,1429;0,0655718
1318,1072;0,0654883
1319,0714;0,0652376
1320,0356;0,0648776
1320,9999;0,0644774
1321,9641;0,0640938
1322,9283;0,0637583
1323,8926;0,063481
1324,8568;0,0632612
1325,8210;0,0630955
1326,7853;0,0629798
1327,7495;0,0629059
1328,7137;0,0628606
1329,6780;0,0628265
1330,6422;0,0627863
1331,6064;0,0627279
1332,5707;0,0626429
1333,5349;0,0625256
1334,4991;0,0623646
1335,4634;0,0621374
1336,4276;0,0618077
1337,3918;0,0613331
1338,3561;0,060689
1339,3203;0,0599031
1340,2845;0,0590638
1341,2488;0,0582779
1342,2130;0,057613
1343,1772;0,0570802
1344,1415;0,0566583
1345,1057;0,0563249
1346,0699;0,056073
1347,0342;0,0559117
1347,9984;0,0558581
1348,9626;0,0559255
1349,9269;0,0561128
1350,8911;0,0564002
1351,8553;0,0567557
1352,8196;0,0571483
1353,7838;0,0575614
1354,7480;0,0579988
1355,7123;0,0584769
1356,6765;0,0590086
1357,6407;0,0595917
1358,6050;0,0602093
1359,5692;0,0608392
1360,5334;0,0614558
