TITLE;
DATA TYPE;INFRARED SPECTRUM
ORIGIN;JASCO
OWNER;
DATE;25/03/19
TIME;14:29:12
SPECTROMETER/DATA SYSTEM;
LOCALE;9226
RESOLUTION;
DELTAX;0,964233
XUNITS;1/CM
YUNITS;ABSORBANCE
FIRSTX;  399,1927
LASTX; 4000,6047
NPOINTS;    3736
FIRSTY;     0,21422
MAXY;     0,26883
MINY;    -0,00124
XYDATA
399,1927;0,214217
400,1569;0,213164
401,1211;0,212644
402,0854;0,212264
403,0496;0,211849
404,0138;0,211434
404,9781;0,211156
405,9423;0,211128
406,9065;0,211356
407,8708;0,211739
408,8350;0,212145
409,7992;0,212478
410,7635;0,2127
411,7277;0,212826
412,6919;0,212911
413,6562;0,213058
414,6204;0,213423
415,5846;0,214224
416,5489;0,215713
417,5131;0,218002
418,4773;0,220732
419,4416;0,22301
420,4058;0,224133
421,3700;0,224208
422,3343;0,223826
423,2985;0,223523
424,2627;0,22358
425,2270;0,224011
426,1912;0,224601
427,1554;0,22504
428,1197;0,225108
429,0839;0,224794
430,0481;0,224294
431,0124;0,223893
431,9766;0,22379
432,9408;0,223997
433,9051;0,22434
434,8693;0,224593
435,8335;0,22462
436,7978;0,224433
437,7620;0,224121
438,7262;0,223735
439,6905;0,223235
440,6547;0,222536
441,6189;0,221609
442,5832;0,220548
443,5474;0,21955
444,5116;0,218799
445,4759;0,218348
446,4401;0,218115
447,4043;0,217952
448,3686;0,217729
449,3328;0,217387
450,2970;0,216949
451,2613;0,216513
452,2255;0,2162
453,1897;0,216093
454,1540;0,216185
455,1182;0,216366
456,0824;0,216461
457,0467;0,216324
458,0109;0,21595
458,9751;0,215505
459,9394;0,215204
460,9036;0,215144
461,8678;0,215272
462,8321;0,215444
463,7963;0,21552
464,7605;0,215427
465,7248;0,21518
466,6890;0,214867
467,6532;0,214605
468,6175;0,214491
469,5817;0,214582
470,5459;0,21486
471,5102;0,215203
472,4744;0,215399
473,4386;0,215254
474,4029;0,214738
475,3671;0,214034
476,3313;0,213446
477,2956;0,213245
478,2598;0,213529
479,2240;0,214157
480,1883;0,214798
481,1525;0,215094
482,1167;0,214851
483,0810;0,214159
484,0452;0,213352
485,0094;0,212825
485,9737;0,212804
486,9379;0,213247
487,9021;0,21392
488,8664;0,214546
489,8306;0,214922
490,7948;0,214968
491,7591;0,214717
492,7233;0,214288
493,6875;0,213839
494,6518;0,213531
495,6160;0,213488
496,5802;0,213776
497,5445;0,214375
498,5087;0,215178
499,4729;0,216022
500,4372;0,216734
501,4014;0,2172
502,3656;0,217409
503,3299;0,217443
504,2941;0,21742
505,2583;0,217438
506,2226;0,21756
507,1868;0,21782
508,1510;0,218235
509,1153;0,218791
510,0795;0,219436
511,0437;0,220092
512,0080;0,22069
512,9722;0,221216
513,9365;0,221713
514,9007;0,222244
515,8649;0,222835
516,8292;0,223416
517,7934;0,223845
518,7576;0,223998
519,7219;0,223872
520,6861;0,2236
521,6503;0,223368
522,6146;0,223315
523,5788;0,223478
524,5430;0,223784
525,5073;0,224092
526,4715;0,224257
527,4357;0,224204
528,4000;0,223939
529,3642;0,223521
530,3284;0,223017
531,2927;0,222476
532,2569;0,221934
533,2211;0,22141
534,1854;0,220911
535,1496;0,220432
536,1138;0,219966
537,0781;0,219521
538,0423;0,219119
539,0065;0,218797
539,9708;0,218584
540,9350;0,218488
541,8992;0,218494
542,8635;0,21858
543,8277;0,218728
544,7919;0,218928
545,7562;0,219175
546,7204;0,219456
547,6846;0,219747
548,6489;0,220029
549,6131;0,2203
550,5773;0,220585
551,5416;0,220923
552,5058;0,221345
553,4700;0,221841
554,4343;0,222356
555,3985;0,222796
556,3627;0,223055
557,3270;0,223033
558,2912;0,222662
559,2554;0,221911
560,2197;0,220807
561,1839;0,219448
562,1481;0,217994
563,1124;0,216625
564,0766;0,215483
565,0408;0,214612
566,0051;0,213954
566,9693;0,213389
567,9335;0,212809
568,8978;0,212182
569,8620;0,211554
570,8262;0,211004
571,7905;0,210578
572,7547;0,210262
573,7189;0,209994
574,6832;0,209703
575,6474;0,209351
576,6116;0,208944
577,5759;0,208523
578,5401;0,208125
579,5043;0,20777
580,4686;0,207445
581,4328;0,207122
582,3970;0,206767
583,3613;0,206365
584,3255;0,20593
585,2897;0,205507
586,2540;0,20516
587,2182;0,204941
588,1824;0,204868
589,1467;0,204903
590,1109;0,20497
591,0751;0,204983
592,0394;0,204883
593,0036;0,20466
593,9678;0,204341
594,9321;0,20396
595,8963;0,203531
596,8605;0,203053
597,8248;0,202527
598,7890;0,201976
599,7532;0,201443
600,7175;0,200969
601,6817;0,200568
602,6459;0,200221
603,6102;0,199886
604,5744;0,199533
605,5386;0,199145
606,5029;0,198716
607,4671;0,198227
608,4313;0,197638
609,3956;0,196911
610,3598;0,196045
611,3240;0,19511
612,2883;0,194229
613,2525;0,193525
614,2167;0,193047
615,1810;0,19272
616,1452;0,192351
617,1094;0,191712
618,0737;0,19066
619,0379;0,189217
620,0021;0,187557
620,9664;0,185902
621,9306;0,184425
622,8948;0,183194
623,8591;0,18218
624,8233;0,181266
625,7875;0,180437
626,7518;0,179644
627,7160;0,178878
628,6802;0,17814
629,6445;0,177431
630,6087;0,17674
631,5729;0,176055
632,5372;0,175375
633,5014;0,174711
634,4656;0,174081
635,4299;0,1735
636,3941;0,172977
637,3583;0,172514
638,3226;0,172111
639,2868;0,171761
640,2510;0,171447
641,2153;0,171142
642,1795;0,170819
643,1437;0,170466
644,1080;0,170088
645,0722;0,169712
646,0364;0,169363
647,0007;0,169059
647,9649;0,168799
648,9291;0,168576
649,8934;0,168386
650,8576;0,168238
651,8218;0,168155
652,7861;0,168159
653,7503;0,168264
654,7145;0,168464
655,6788;0,168732
656,6430;0,169022
657,6072;0,169296
658,5715;0,169525
659,5357;0,169684
660,4999;0,169732
661,4642;0,169608
662,4284;0,169234
663,3926;0,168544
664,3569;0,167542
665,3211;0,166398
666,2853;0,16549
667,2496;0,16515
668,2138;0,16515
669,1780;0,164849
670,1423;0,164108
671,1065;0,16314
672,0707;0,161946
673,0350;0,16043
673,9992;0,158614
674,9634;0,156653
675,9277;0,154732
676,8919;0,152957
677,8561;0,15133
678,8204;0,149806
679,7846;0,148369
680,7488;0,14705
681,7131;0,145894
682,6773;0,144914
683,6415;0,144082
684,6058;0,14335
685,5700;0,142679
686,5342;0,142047
687,4985;0,141438
688,4627;0,140842
689,4269;0,140247
690,3912;0,139659
691,3554;0,139099
692,3196;0,138592
693,2839;0,138147
694,2481;0,137748
695,2123;0,137368
696,1766;0,136979
697,1408;0,136566
698,1050;0,136124
699,0693;0,135654
700,0335;0,135158
700,9977;0,134639
701,9620;0,1341
702,9262;0,133548
703,8904;0,132973
704,8547;0,13238
705,8189;0,131768
706,7831;0,131134
707,7474;0,130476
708,7116;0,129788
709,6758;0,129063
710,6401;0,128287
711,6043;0,127454
712,5685;0,126572
713,5328;0,125679
714,4970;0,124832
715,4612;0,123391
716,4255;0,122906
717,3897;0,122547
718,3539;0,122164
719,3182;0,121574
720,2824;0,120646
721,2466;0,119382
722,2109;0,117917
723,1751;0,116436
724,1393;0,115085
725,1036;0,113911
726,0678;0,112879
727,0320;0,111912
727,9963;0,110947
728,9605;0,109969
729,9247;0,109008
730,8890;0,108113
731,8532;0,107325
732,8174;0,106653
733,7817;0,106078
734,7459;0,10556
735,7101;0,105062
736,6744;0,104564
737,6386;0,104067
738,6028;0,103587
739,5671;0,103138
740,5313;0,102718
741,4955;0,102305
742,4598;0,101874
743,4240;0,101406
744,3882;0,100906
745,3525;0,100394
746,3167;0,099894
747,2809;0,0994197
748,2452;0,0989672
749,2094;0,0985216
750,1736;0,0980666
751,1379;0,0975928
752,1021;0,0970991
753,0663;0,0965895
754,0306;0,0960697
754,9948;0,0955457
755,9590;0,0950236
756,9233;0,0945096
757,8875;0,0940081
758,8517;0,0935206
759,8160;0,0930459
760,7802;0,0925829
761,7444;0,0921315
762,7087;0,0916921
763,6729;0,0912629
764,6371;0,0908391
765,6014;0,0904168
766,5656;0,0899975
767,5298;0,0895894
768,4941;0,0892015
769,4583;0,0888326
770,4225;0,0884643
771,3868;0,0880653
772,3510;0,0876079
773,3152;0,0870862
774,2795;0,0865248
775,2437;0,0859697
776,2079;0,0854664
777,1722;0,0850378
778,1364;0,0846746
779,1006;0,0843438
780,0649;0,0840081
781,0291;0,0836437
781,9933;0,0832474
782,9576;0,0828317
783,9218;0,0824133
784,8860;0,0820037
785,8503;0,0816077
786,8145;0,0812264
787,7787;0,0808625
788,7430;0,0805204
789,7072;0,080204
790,6714;0,0799131
791,6357;0,079643
792,5999;0,0793876
793,5641;0,0791428
794,5284;0,078908
795,4926;0,0786834
796,4568;0,0784668
797,4211;0,0782517
798,3853;0,0780303
799,3495;0,0777969
800,3138;0,077552
801,2780;0,0773012
802,2422;0,0770523
803,2065;0,0768117
804,1707;0,0765815
805,1349;0,0763601
806,0992;0,0761433
807,0634;0,0759279
808,0276;0,075715
808,9919;0,0755114
809,9561;0,0753286
810,9203;0,0751765
811,8846;0,0750565
812,8488;0,0749567
813,8130;0,0748546
814,7773;0,0747272
815,7415;0,0745628
816,7057;0,0743684
817,6700;0,0741665
818,6342;0,0739843
819,5984;0,0738412
820,5627;0,0737409
821,5269;0,073673
822,4911;0,0736205
823,4554;0,0735688
824,4196;0,0735108
825,3839;0,0734468
826,3481;0,0733811
827,3123;0,0733166
828,2766;0,0732519
829,2408;0,0731805
830,2050;0,0730938
831,1693;0,0729851
832,1335;0,0728527
833,0977;0,0726993
834,0620;0,0725295
835,0262;0,0723452
835,9904;0,0721446
836,9547;0,071924
837,9189;0,0716825
838,8831;0,0714247
839,8474;0,0711607
840,8116;0,0709021
841,7758;0,070658
842,7401;0,070434
843,7043;0,0702335
844,6685;0,0700601
845,6328;0,0699178
846,5970;0,0698084
847,5612;0,0697287
848,5255;0,069669
849,4897;0,0696166
850,4539;0,0695598
851,4182;0,0694931
852,3824;0,069419
853,3466;0,0693462
854,3109;0,0692856
855,2751;0,0692448
856,2393;0,0692254
857,2036;0,0692236
858,1678;0,069234
859,1320;0,0692536
860,0963;0,0692831
861,0605;0,0693248
862,0247;0,0693762
862,9890;0,0694282
863,9532;0,069468
864,9174;0,0694882
865,8817;0,0694953
866,8459;0,06951
867,8101;0,0695583
868,7744;0,0696578
869,7386;0,0698065
870,7028;0,0699837
871,6671;0,0701588
872,6313;0,0703039
873,5955;0,070402
874,5598;0,070449
875,5240;0,0704514
876,4882;0,0704254
877,4525;0,0703968
878,4167;0,0703991
879,3809;0,0704684
880,3452;0,070634
881,3094;0,0709109
882,2736;0,0712982
883,2379;0,0717846
884,2021;0,072357
885,1663;0,0730069
886,1306;0,0737326
887,0948;0,0745359
888,0590;0,075416
889,0233;0,0763632
889,9875;0,0773533
890,9517;0,078347
891,9160;0,0792954
892,8802;0,0801523
893,8444;0,0808873
894,8087;0,0814921
895,7729;0,0819752
896,7371;0,0823473
897,7014;0,0826079
898,6656;0,0827422
899,6298;0,0827311
900,5941;0,082567
901,5583;0,0822639
902,5225;0,0818561
903,4868;0,0813882
904,4510;0,0809046
905,4152;0,0804437
906,3795;0,0800377
907,3437;0,0797116
908,3079;0,0794805
909,2722;0,0793459
910,2364;0,0792968
911,2007;0,0793161
912,1649;0,0793905
913,1292;0,0795161
914,0934;0,0796967
915,0576;0,0799363
916,0219;0,0802337
916,9861;0,0805807
917,9503;0,0809659
918,9146;0,0813774
919,8788;0,0818035
920,8430;0,082231
921,8073;0,0826446
922,7715;0,0830303
923,7357;0,0833793
924,7000;0,0836902
925,6642;0,0839663
926,6284;0,0842104
927,5927;0,0844217
928,5569;0,0845967
929,5211;0,084735
930,4854;0,0848449
931,4496;0,0849442
932,4138;0,0850554
933,3781;0,0851979
934,3423;0,0853824
935,3065;0,0856094
936,2708;0,0858726
937,2350;0,0861663
938,1992;0,0864902
939,1635;0,0868518
940,1277;0,0872654
941,0919;0,0877479
942,0562;0,0883157
943,0204;0,0889823
943,9846;0,0897567
944,9489;0,0906432
945,9131;0,0916407
946,8773;0,0927432
947,8416;0,0939416
948,8058;0,095228
949,7700;0,0965981
950,7343;0,098052
951,6985;0,0995923
952,6627;0,101221
953,6270;0,102937
954,5912;0,104739
955,5554;0,106624
956,5197;0,108594
957,4839;0,110647
958,4481;0,112778
959,4124;0,114971
960,3766;0,11721
961,3408;0,119477
962,3051;0,121762
963,2693;0,124064
964,2335;0,126385
965,1978;0,128731
966,1620;0,131106
967,1262;0,133514
968,0905;0,135971
969,0547;0,138504
970,0189;0,141149
970,9832;0,143947
971,9474;0,146937
972,9116;0,150151
973,8759;0,153608
974,8401;0,157322
975,8043;0,161293
976,7686;0,165508
977,7328;0,169939
978,6970;0,174536
979,6613;0,179222
980,6255;0,183894
981,5897;0,188427
982,5540;0,192691
983,5182;0,196578
984,4824;0,200022
985,4467;0,20302
986,4109;0,20562
987,3751;0,207905
988,3394;0,209958
989,3036;0,211842
990,2678;0,21359
991,2321;0,215211
992,1963;0,216704
993,1605;0,218071
994,1248;0,219322
995,0890;0,220467
996,0532;0,221516
997,0175;0,222469
997,9817;0,223325
998,9459;0,224086
999,9102;0,224765
1000,8744;0,225395
1001,8386;0,226026
1002,8029;0,226727
1003,7671;0,227564
1004,7313;0,2286
1005,6956;0,229875
1006,6598;0,231412
1007,6240;0,233208
1008,5883;0,235247
1009,5525;0,237503
1010,5167;0,239936
1011,4810;0,242494
1012,4452;0,24511
1013,4094;0,247702
1014,3737;0,250179
1015,3379;0,25246
1016,3021;0,254491
1017,2664;0,256252
1018,2306;0,257765
1019,1948;0,259078
1020,1591;0,260255
1021,1233;0,261353
1022,0875;0,262413
1023,0518;0,263451
1024,0160;0,264465
1024,9802;0,265441
1025,9445;0,266361
1026,9087;0,267204
1027,8729;0,267937
1028,8372;0,268507
1029,8014;0,268833
1030,7656;0,268808
1031,7299;0,26832
1032,6941;0,267283
1033,6583;0,265667
1034,6226;0,263516
1035,5868;0,260949
1036,5510;0,25814
1037,5153;0,255288
1038,4795;0,252585
1039,4437;0,250191
1040,4080;0,248216
1041,3722;0,246708
1042,3364;0,245652
1043,3007;0,244978
1044,2649;0,244578
1045,2291;0,24433
1046,1934;0,244126
1047,1576;0,24388
1048,1218;0,243529
1049,0861;0,243016
1050,0503;0,242283
1051,0145;0,241268
1051,9788;0,239928
1052,9430;0,238251
1053,9072;0,236271
1054,8715;0,234038
1055,8357;0,231592
1056,7999;0,228928
1057,7642;0,225987
1058,7284;0,22269
1059,6926;0,218985
1060,6569;0,214891
1061,6211;0,210516
1062,5853;0,206035
1063,5496;0,201642
1064,5138;0,197506
1065,4780;0,193736
1066,4423;0,190375
1067,4065;0,187409
1068,3707;0,184786
1069,3350;0,182439
1070,2992;0,180292
1071,2634;0,17827
1072,2277;0,176295
1073,1919;0,174292
1074,1561;0,172195
1075,1204;0,169953
1076,0846;0,16755
1077,0488;0,165007
1078,0131;0,162385
1078,9773;0,159764
1079,9415;0,157232
1080,9058;0,154865
1081,8700;0,152715
1082,8342;0,150811
1083,7985;0,149157
1084,7627;0,147739
1085,7269;0,146533
1086,6912;0,14551
1087,6554;0,144649
1088,6196;0,143936
1089,5839;0,143368
1090,5481;0,142948
1091,5123;0,142676
1092,4766;0,142548
1093,4408;0,142557
1094,4050;0,142695
1095,3693;0,142952
1096,3335;0,143316
1097,2977;0,143768
1098,2620;0,144274
1099,2262;0,144797
1100,1904;0,145293
1101,1547;0,145725
1102,1189;0,146061
1103,0831;0,146276
1104,0474;0,14635
1105,0116;0,146274
1105,9758;0,146052
1106,9401;0,145703
1107,9043;0,145242
1108,8685;0,144668
1109,8328;0,143944
1110,7970;0,143007
1111,7612;0,141789
1112,7255;0,140257
1113,6897;0,138442
1114,6539;0,13644
1115,6182;0,134387
1116,5824;0,132415
1117,5466;0,130607
1118,5109;0,128989
1119,4751;0,127525
1120,4393;0,126145
1121,4036;0,124764
1122,3678;0,123301
1123,3320;0,121685
1124,2963;0,119865
1125,2605;0,11782
1126,2247;0,115562
1127,1890;0,113139
1128,1532;0,110619
1129,1174;0,108076
1130,0817;0,105568
1131,0459;0,103136
1132,0101;0,100799
1132,9744;0,0985738
1133,9386;0,0964801
1134,9028;0,0945511
1135,8671;0,0928305
1136,8313;0,0913661
1137,7955;0,0901985
1138,7598;0,0893515
1139,7240;0,0888243
1140,6882;0,0885906
1141,6525;0,0886042
1142,6167;0,0888094
1143,5809;0,0891532
1144,5452;0,0895951
1145,5094;0,0901104
1146,4736;0,090688
1147,4379;0,0913251
1148,4021;0,0920204
1149,3663;0,0927686
1150,3306;0,0935563
1151,2948;0,0943601
1152,2590;0,0951476
1153,2233;0,0958803
1154,1875;0,0965178
1155,1517;0,0970207
1156,1160;0,0973494
1157,0802;0,097459
1158,0444;0,0972941
1159,0087;0,0967865
1159,9729;0,0958606
1160,9371;0,0944471
1161,9014;0,0925025
1162,8656;0,0900271
1163,8298;0,0870748
1164,7941;0,0837505
1165,7583;0,0801953
1166,7225;0,0765643
1167,6868;0,0730031
1168,6510;0,0696301
1169,6152;0,0665266
1170,5795;0,0637364
1171,5437;0,061271
1172,5079;0,0591182
1173,4722;0,0572511
1174,4364;0,0556357
1175,4006;0,0542377
1176,3649;0,0530262
1177,3291;0,0519769
1178,2933;0,0510712
1179,2576;0,0502947
1180,2218;0,0496347
1181,1860;0,0490792
1182,1503;0,0486177
1183,1145;0,048243
1184,0787;0,0479532
1185,0430;0,0477512
1186,0072;0,0476431
1186,9714;0,0476353
1187,9357;0,0477315
1188,8999;0,0479321
1189,8641;0,0482343
1190,8284;0,0486333
1191,7926;0,0491236
1192,7568;0,0496995
1193,7211;0,0503551
1194,6853;0,0510836
1195,6495;0,0518755
1196,6138;0,0527171
1197,5780;0,0535901
1198,5422;0,054474
1199,5065;0,055237
1200,4707;0,0561001
1201,4349;0,0569309
1202,3992;0,0577256
1203,3634;0,0584828
1204,3276;0,0591989
1205,2919;0,059868
1206,2561;0,0604843
1207,2203;0,061049
1208,1846;0,0615759
1209,1488;0,062094
1210,1130;0,0626424
1211,0773;0,0632616
1212,0415;0,0639816
1213,0057;0,0648139
1213,9700;0,0657507
1214,9342;0,06677
1215,8984;0,0678444
1216,8627;0,0689471
1217,8269;0,0700551
1218,7911;0,0711513
1219,7554;0,0722224
1220,7196;0,0732597
1221,6838;0,0742579
1222,6481;0,0752153
1223,6123;0,0761316
1224,5765;0,0770057
1225,5408;0,0778357
1226,5050;0,0786195
1227,4692;0,0793567
1228,4335;0,0800482
1229,3977;0,080694
1230,3619;0,0812899
1231,3262;0,0818264
1232,2904;0,0822906
1233,2546;0,082673
1234,2189;0,0829726
1235,1831;0,0831993
1236,1473;0,0833703
1237,1116;0,0835027
1238,0758;0,0836065
1239,0400;0,0836819
1240,0043;0,0837216
1240,9685;0,0837159
1241,9327;0,0836579
1242,8970;0,0835441
1243,8612;0,0833731
1244,8254;0,0831426
1245,7897;0,0828497
1246,7539;0,0824934
1247,7181;0,0820794
1248,6824;0,081622
1249,6466;0,0811417
1250,6108;0,0806596
1251,5751;0,0801926
1252,5393;0,0797501
1253,5035;0,079335
1254,4678;0,0789451
1255,4320;0,0785738
1256,3962;0,0782098
1257,3605;0,0778368
1258,3247;0,0774356
1259,2889;0,0769899
1260,2532;0,0764908
1261,2174;0,0759392
1262,1816;0,0753427
1263,1459;0,0747101
1264,1101;0,0740472
1265,0743;0,0733563
1266,0386;0,0726387
1267,0028;0,0718972
1267,9670;0,0711377
1268,9313;0,0703671
1269,8955;0,0695916
1270,8597;0,0688147
1271,8240;0,0680369
1272,7882;0,0672579
1273,7524;0,0664801
1274,7167;0,0657105
1275,6809;0,0649603
1276,6451;0,0642401
1277,6094;0,0635534
1278,5736;0,0628924
1279,5378;0,0622408
1280,5021;0,0615819
1281,4663;0,0609096
1282,4305;0,0602325
1283,3948;0,0595709
1284,3590;0,0589468
1285,3232;0,0583762
1286,2875;0,0578654
1287,2517;0,0574147
1288,2159;0,0570227
1289,1802;0,0566891
1290,1444;0,0564138
1291,1086;0,0561952
1292,0729;0,056031
1293,0371;0,0559225
1294,0013;0,0558767
1294,9656;0,0559065
1295,9298;0,056025
1296,8940;0,0562392
1297,8583;0,056547
1298,8225;0,0569385
1299,7867;0,0574006
1300,7510;0,057922
1301,7152;0,0584966
1302,6794;0,0591221
1303,6437;0,0597983
1304,6079;0,0605258
1305,5721;0,0613033
1306,5364;0,0621249
1307,5006;0,0629801
1308,4648;0,0638551
1309,4291;0,0647349
1310,3933;0,0656039
1311,3575;0,0664448
1312,3218;0,0672363
1313,2860;0,0679518
1314,2502;0,0685604
1315,2145;0,0690287
1316,1787;0,0693255
1317,1429;0,0694297
1318,1072;0,0693417
1319,0714;0,069092
1320,0356;0,0687372
1320,9999;0,0683418
1321,9641;0,067957
1322,9283;0,0676107
1323,8926;0,0673124
1324,8568;0,0670635
1325,8210;0,0668651
1326,7853;0,0667184
1327,7495;0,0666205
1328,7137;0,0665609
1329,6780;0,0665214
1330,6422;0,0664806
1331,6064;0,0664191
1332,5707;0,066322
1333,5349;0,066179
1334,4991;0,0659789
1335,4634;0,0657025
1336,4276;0,0653212
1337,3918;0,0648027
1338,3561;0,0641338
1339,3203;0,0633473
1340,2845;0,0625256
1341,2488;0,0617619
1342,2130;0,0611119
1343,1772;0,0605827
1344,1415;0,0601552
1345,1057;0,0598103
1346,0699;0,0595429
1347,0342;0,0593634
1347,9984;0,0592908
1348,9626;0,0593418
1349,9269;0,0595194
1350,8911;0,0598073
1351,8553;0,0601742
1352,8196;0,0605868
1353,7838;0,0610241
1354,7480;0,0614849
1355,7123;0,0619828
1356,6765;0,0625309
1357,6407;0,0631296
1358,6050;0,0637655
1359,5692;0,0644176
1360,5334;0,0650591
1361,4977;0,0656588
