TITLE;
DATA TYPE;INFRARED SPECTRUM
ORIGIN;JASCO
OWNER;
DATE;25/03/18
TIME;19:39:20
SPECTROMETER/DATA SYSTEM;
LOCALE;9226
RESOLUTION;
DELTAX;0,964233
XUNITS;1/CM
YUNITS;ABSORBANCE
FIRSTX;  399,1927
LASTX; 4000,6047
NPOINTS;    3736
FIRSTY;     0,17921
MAXY;     0,26491
MINY;     0,01366
XYDATA
399,1927;0,179213
400,1569;0,18094
401,1211;0,182148
402,0854;0,182475
403,0496;0,182045
404,0138;0,181263
404,9781;0,180649
405,9423;0,180651
406,9065;0,181459
407,8708;0,182939
408,8350;0,184736
409,7992;0,186444
410,7635;0,187732
411,7277;0,188406
412,6919;0,188464
413,6562;0,188074
414,6204;0,187523
415,5846;0,187159
416,5489;0,187368
417,5131;0,188473
418,4773;0,190392
419,4416;0,192401
420,4058;0,193748
421,3700;0,194383
422,3343;0,194717
423,2985;0,19507
424,2627;0,195485
425,2270;0,195801
426,1912;0,195845
427,1554;0,195615
428,1197;0,195321
429,0839;0,195251
430,0481;0,195588
431,0124;0,196284
431,9766;0,197067
432,9408;0,197586
433,9051;0,197601
434,8693;0,197101
435,8335;0,196292
436,7978;0,195461
437,7620;0,194812
438,7262;0,194393
439,6905;0,194127
440,6547;0,193901
441,6189;0,193642
442,5832;0,193363
443,5474;0,193156
444,5116;0,193112
445,4759;0,193229
446,4401;0,19337
447,4043;0,193326
448,3686;0,192924
449,3328;0,192129
450,2970;0,191099
451,2613;0,190116
452,2255;0,189442
453,1897;0,189168
454,1540;0,18917
455,1182;0,189197
456,0824;0,189023
457,0467;0,188587
458,0109;0,188036
458,9751;0,187593
459,9394;0,18735
460,9036;0,187204
461,8678;0,186975
462,8321;0,186532
463,7963;0,185861
464,7605;0,185064
465,7248;0,184313
466,6890;0,183777
467,6532;0,183563
468,6175;0,183707
469,5817;0,184186
470,5459;0,184913
471,5102;0,185708
472,4744;0,186325
473,4386;0,186559
474,4029;0,186385
475,3671;0,18598
476,3313;0,185618
477,2956;0,185543
478,2598;0,185873
479,2240;0,186558
480,1883;0,187399
481,1525;0,188145
482,1167;0,188604
483,0810;0,188738
484,0452;0,18866
485,0094;0,188559
485,9737;0,188574
486,9379;0,188739
487,9021;0,189007
488,8664;0,189324
489,8306;0,189674
490,7948;0,190077
491,7591;0,19055
492,7233;0,191078
493,6875;0,191607
494,6518;0,19208
495,6160;0,192461
496,5802;0,192739
497,5445;0,19292
498,5087;0,193014
499,4729;0,193048
500,4372;0,193083
501,4014;0,193215
502,3656;0,193534
503,3299;0,194064
504,2941;0,194741
505,2583;0,195435
506,2226;0,196022
507,1868;0,196428
508,1510;0,196661
509,1153;0,196797
510,0795;0,196934
511,0437;0,197159
512,0080;0,197518
512,9722;0,198025
513,9365;0,198679
514,9007;0,199468
515,8649;0,200363
516,8292;0,201304
517,7934;0,202181
518,7576;0,202866
519,7219;0,203266
520,6861;0,203365
521,6503;0,203223
522,6146;0,202942
523,5788;0,20264
524,5430;0,202426
525,5073;0,202367
526,4715;0,202448
527,4357;0,202576
528,4000;0,202632
529,3642;0,202533
530,3284;0,202272
531,2927;0,201911
532,2569;0,201558
533,2211;0,201317
534,1854;0,201247
535,1496;0,201329
536,1138;0,201473
537,0781;0,201563
538,0423;0,201521
539,0065;0,201345
539,9708;0,201108
540,9350;0,200917
541,8992;0,200852
542,8635;0,200925
543,8277;0,201089
544,7919;0,201276
545,7562;0,201449
546,7204;0,201634
547,6846;0,2019
548,6489;0,202312
549,6131;0,202881
550,5773;0,203556
551,5416;0,20426
552,5058;0,204926
553,4700;0,20553
554,4343;0,206072
555,3985;0,206552
556,3627;0,206936
557,3270;0,207161
558,2912;0,207152
559,2554;0,206862
560,2197;0,206288
561,1839;0,205476
562,1481;0,204507
563,1124;0,203476
564,0766;0,202474
565,0408;0,20158
566,0051;0,200845
566,9693;0,200297
567,9335;0,199919
568,8978;0,199661
569,8620;0,199444
570,8262;0,199199
571,7905;0,198894
572,7547;0,198544
573,7189;0,198204
574,6832;0,19794
575,6474;0,1978
576,6116;0,197781
577,5759;0,197837
578,5401;0,197894
579,5043;0,197892
580,4686;0,1978
581,4328;0,197627
582,3970;0,197403
583,3613;0,197173
584,3255;0,196975
585,2897;0,196836
586,2540;0,196771
587,2182;0,196779
588,1824;0,196846
589,1467;0,196946
590,1109;0,197043
591,0751;0,197094
592,0394;0,197058
593,0036;0,196909
593,9678;0,19664
594,9321;0,196262
595,8963;0,1958
596,8605;0,195278
597,8248;0,194717
598,7890;0,194129
599,7532;0,193521
600,7175;0,1929
601,6817;0,192283
602,6459;0,191704
603,6102;0,191204
604,5744;0,190809
605,5386;0,19051
606,5029;0,190256
607,4671;0,189969
608,4313;0,189576
609,3956;0,189042
610,3598;0,188379
611,3240;0,187632
612,2883;0,186856
613,2525;0,18609
614,2167;0,185341
615,1810;0,184596
616,1452;0,183827
617,1094;0,183003
618,0737;0,182097
619,0379;0,181098
620,0021;0,180007
620,9664;0,178839
621,9306;0,177626
622,8948;0,176412
623,8591;0,175256
624,8233;0,174219
625,7875;0,173325
626,7518;0,172577
627,7160;0,17194
628,6802;0,171359
629,6445;0,170781
630,6087;0,170168
631,5729;0,169507
632,5372;0,168817
633,5014;0,168134
634,4656;0,167497
635,4299;0,166933
636,3941;0,16644
637,3583;0,165988
638,3226;0,165532
639,2868;0,165036
640,2510;0,164487
641,2153;0,163902
642,1795;0,163322
643,1437;0,162786
644,1080;0,162321
645,0722;0,161927
646,0364;0,161588
647,0007;0,161276
647,9649;0,16097
648,9291;0,160659
649,8934;0,160349
650,8576;0,16006
651,8218;0,159818
652,7861;0,159646
653,7503;0,159559
654,7145;0,159564
655,6788;0,159663
656,6430;0,159851
657,6072;0,160102
658,5715;0,160362
659,5357;0,16054
660,4999;0,16055
661,4642;0,16037
662,4284;0,160074
663,3926;0,159791
664,3569;0,159634
665,3211;0,159621
666,2853;0,159621
667,2496;0,159331
668,2138;0,158437
669,1780;0,156959
670,1423;0,155258
671,1065;0,153601
672,0707;0,152025
673,0350;0,150459
673,9992;0,148836
674,9634;0,147148
675,9277;0,14546
676,8919;0,143858
677,8561;0,142386
678,8204;0,141027
679,7846;0,139757
680,7488;0,138583
681,7131;0,13754
682,6773;0,136654
683,6415;0,135912
684,6058;0,135268
685,5700;0,134668
686,5342;0,134082
687,4985;0,133508
688,4627;0,132961
689,4269;0,132459
690,3912;0,13201
691,3554;0,131606
692,3196;0,131225
693,2839;0,130845
694,2481;0,130452
695,2123;0,130043
696,1766;0,129622
697,1408;0,129193
698,1050;0,128752
699,0693;0,128288
700,0335;0,127793
700,9977;0,127274
701,9620;0,126744
702,9262;0,126223
703,8904;0,125723
704,8547;0,125241
705,8189;0,124769
706,7831;0,124298
707,7474;0,123827
708,7116;0,123356
709,6758;0,122874
710,6401;0,122361
711,6043;0,121796
712,5685;0,12117
713,5328;0,120501
714,4970;0,119828
715,4612;0,119315
716,4255;0,118682
717,3897;0,118045
718,3539;0,117361
719,3182;0,116598
720,2824;0,115762
721,2466;0,114896
722,2109;0,114049
723,1751;0,113249
724,1393;0,112488
725,1036;0,111743
726,0678;0,110993
727,0320;0,110234
727,9963;0,109476
728,9605;0,108734
729,9247;0,108022
730,8890;0,107348
731,8532;0,10672
732,8174;0,10614
733,7817;0,105602
734,7459;0,105088
735,7101;0,104577
736,6744;0,104061
737,6386;0,103551
738,6028;0,103074
739,5671;0,102649
740,5313;0,10227
741,4955;0,101904
742,4598;0,10151
743,4240;0,10106
744,3882;0,100552
745,3525;0,100006
746,3167;0,0994488
747,2809;0,0988972
748,2452;0,0983592
749,2094;0,0978395
750,1736;0,097344
751,1379;0,0968761
752,1021;0,0964283
753,0663;0,0959782
754,0306;0,0954961
754,9948;0,0949608
755,9590;0,0943741
756,9233;0,0937627
757,8875;0,0931672
758,8517;0,0926239
759,8160;0,0921512
760,7802;0,0917467
761,7444;0,0913936
762,7087;0,0910697
763,6729;0,0907542
764,6371;0,0904302
765,6014;0,0900848
766,5656;0,0897097
767,5298;0,0893033
768,4941;0,0888724
769,4583;0,0884327
770,4225;0,0880062
771,3868;0,0876152
772,3510;0,0872753
773,3152;0,0869885
774,2795;0,086741
775,2437;0,086507
776,2079;0,0862594
777,1722;0,0859806
778,1364;0,0856694
779,1006;0,0853371
780,0649;0,0849962
781,0291;0,0846492
781,9933;0,0842863
782,9576;0,0838937
783,9218;0,0834679
784,8860;0,0830244
785,8503;0,0825962
786,8145;0,0822197
787,7787;0,0819192
788,7430;0,0816956
789,7072;0,0815273
790,6714;0,0813793
791,6357;0,0812166
792,5999;0,0810156
793,5641;0,0807705
794,5284;0,080494
795,4926;0,0802111
796,4568;0,0799503
797,4211;0,0797326
798,3853;0,0795634
799,3495;0,0794312
800,3138;0,0793138
801,2780;0,0791875
802,2422;0,0790364
803,2065;0,078857
804,1707;0,0786564
805,1349;0,0784483
806,0992;0,0782475
807,0634;0,0780663
808,0276;0,0779104
808,9919;0,0777773
809,9561;0,0776557
810,9203;0,077529
811,8846;0,0773829
812,8488;0,0772114
813,8130;0,07702
814,7773;0,0768211
815,7415;0,0766261
816,7057;0,076439
817,6700;0,0762576
818,6342;0,0760807
819,5984;0,0759148
820,5627;0,075774
821,5269;0,0756708
822,4911;0,0756059
823,4554;0,0755631
824,4196;0,0755174
825,3839;0,0754486
826,3481;0,075353
827,3123;0,0752426
828,2766;0,0751337
829,2408;0,0750331
830,2050;0,0749312
831,1693;0,0748086
832,1335;0,0746488
833,0977;0,0744487
834,0620;0,0742195
835,0262;0,073978
835,9904;0,0737353
836,9547;0,073491
837,9189;0,0732352
838,8831;0,0729563
839,8474;0,0726493
840,8116;0,0723203
841,7758;0,0719861
842,7401;0,0716693
843,7043;0,0713924
844,6685;0,0711707
845,6328;0,0710064
846,5970;0,0708874
847,5612;0,0707909
848,5255;0,0706937
849,4897;0,0705834
850,4539;0,0704637
851,4182;0,0703511
852,3824;0,0702625
853,3466;0,0702024
854,3109;0,0701574
855,2751;0,0701034
856,2393;0,0700203
857,2036;0,0699056
858,1678;0,0697774
859,1320;0,0696657
860,0963;0,0695968
861,0605;0,0695829
862,0247;0,0696199
862,9890;0,0696955
863,9532;0,0697974
864,9174;0,0699186
865,8817;0,0700558
866,8459;0,0702064
867,8101;0,0703667
868,7744;0,0705329
869,7386;0,0707028
870,7028;0,0708741
871,6671;0,071041
872,6313;0,0711924
873,5955;0,0713146
874,5598;0,0713986
875,5240;0,0714474
876,4882;0,0714765
877,4525;0,0715086
878,4167;0,0715639
879,3809;0,071655
880,3452;0,0717878
881,3094;0,0719686
882,2736;0,0722096
883,2379;0,0725294
884,2021;0,0729461
885,1663;0,0734696
886,1306;0,0740964
887,0948;0,074812
888,0590;0,0755979
889,0233;0,0764376
889,9875;0,0773174
890,9517;0,0782213
891,9160;0,0791248
892,8802;0,0799922
893,8444;0,0807806
894,8087;0,0814473
895,7729;0,0819573
896,7371;0,0822864
897,7014;0,0824208
898,6656;0,0823566
899,6298;0,0821017
900,5941;0,0816786
901,5583;0,0811246
902,5225;0,0804855
903,4868;0,0798051
904,4510;0,0791173
905,4152;0,0784451
906,3795;0,0778074
907,3437;0,0772285
908,3079;0,0767394
909,2722;0,0763718
910,2364;0,0761446
911,2007;0,0760555
912,1649;0,0760816
913,1292;0,0761908
914,0934;0,0763552
915,0576;0,07656
916,0219;0,0768025
916,9861;0,0770842
917,9503;0,0774026
918,9146;0,0777467
919,8788;0,0780992
920,8430;0,0784425
921,8073;0,0787637
922,7715;0,0790566
923,7357;0,0793186
924,7000;0,0795477
925,6642;0,07974
926,6284;0,0798915
927,5927;0,0800035
928,5569;0,080087
929,5211;0,0801627
930,4854;0,0802553
931,4496;0,0803828
932,4138;0,0805495
933,3781;0,0807456
934,3423;0,0809553
935,3065;0,0811686
936,2708;0,0813888
937,2350;0,0816334
938,1992;0,0819262
939,1635;0,0822879
940,1277;0,0827291
941,0919;0,0832484
942,0562;0,0838353
943,0204;0,0844759
943,9846;0,0851585
944,9489;0,0858788
945,9131;0,086642
946,8773;0,0874623
947,8416;0,0883574
948,8058;0,0893414
949,7700;0,0904181
950,7343;0,0915798
951,6985;0,0928122
952,6627;0,0941026
953,6270;0,0954464
954,5912;0,0968489
955,5554;0,0983215
956,5197;0,0998755
957,4839;0,101518
958,4481;0,103249
959,4124;0,105063
960,3766;0,106947
961,3408;0,108883
962,3051;0,11085
963,2693;0,112827
964,2335;0,114804
965,1978;0,116783
966,1620;0,118785
967,1262;0,120841
968,0905;0,122987
969,0547;0,125252
970,0189;0,127662
970,9832;0,130234
971,9474;0,132992
972,9116;0,135961
973,8759;0,139174
974,8401;0,142658
975,8043;0,14643
976,7686;0,150486
977,7328;0,154798
978,6970;0,159315
979,6613;0,163959
980,6255;0,168627
981,5897;0,173196
982,5540;0,177537
983,5182;0,181534
984,4824;0,185106
985,4467;0,188221
986,4109;0,190897
987,3751;0,19318
988,3394;0,19513
989,3036;0,196801
990,2678;0,198236
991,2321;0,199466
992,1963;0,200524
993,1605;0,201443
994,1248;0,202261
995,0890;0,203012
996,0532;0,203721
997,0175;0,204402
997,9817;0,205061
998,9459;0,205701
999,9102;0,206332
1000,8744;0,206979
1001,8386;0,207685
1002,8029;0,208495
1003,7671;0,209456
1004,7313;0,210601
1005,6956;0,211953
1006,6598;0,213529
1007,6240;0,215347
1008,5883;0,217421
1009,5525;0,219755
1010,5167;0,222331
1011,4810;0,225104
1012,4452;0,228006
1013,4094;0,230961
1014,3737;0,233902
1015,3379;0,236777
1016,3021;0,239551
1017,2664;0,242199
1018,2306;0,244701
1019,1948;0,247047
1020,1591;0,249236
1021,1233;0,251282
1022,0875;0,253208
1023,0518;0,255033
1024,0160;0,256772
1024,9802;0,258422
1025,9445;0,259971
1026,9087;0,261397
1027,8729;0,262664
1028,8372;0,263723
1029,8014;0,264501
1030,7656;0,264907
1031,7299;0,264847
1032,6941;0,264244
1033,6583;0,263064
1034,6226;0,261341
1035,5868;0,259176
1036,5510;0,256732
1037,5153;0,254207
1038,4795;0,251798
1039,4437;0,249666
1040,4080;0,247915
1041,3722;0,246577
1042,3364;0,24562
1043,3007;0,244963
1044,2649;0,244498
1045,2291;0,244114
1046,1934;0,243713
1047,1576;0,243222
1048,1218;0,242583
1049,0861;0,241755
1050,0503;0,240702
1051,0145;0,239396
1051,9788;0,237816
1052,9430;0,23596
1053,9072;0,233841
1054,8715;0,231482
1055,8357;0,228892
1056,7999;0,226058
1057,7642;0,222944
1058,7284;0,219513
1059,6926;0,21575
1060,6569;0,211698
1061,6211;0,207451
1062,5853;0,203146
1063,5496;0,198923
1064,5138;0,194899
1065,4780;0,191146
1066,4423;0,187696
1067,4065;0,184543
1068,3707;0,181662
1069,3350;0,179015
1070,2992;0,176555
1071,2634;0,174229
1072,2277;0,17198
1073,1919;0,169755
1074,1561;0,167504
1075,1204;0,165195
1076,0846;0,162816
1077,0488;0,16038
1078,0131;0,15793
1078,9773;0,155528
1079,9415;0,153241
1080,9058;0,15113
1081,8700;0,149233
1082,8342;0,147562
1083,7985;0,146107
1084,7627;0,144849
1085,7269;0,143763
1086,6912;0,142833
1087,6554;0,142043
1088,6196;0,141384
1089,5839;0,14085
1090,5481;0,140443
1091,5123;0,140167
1092,4766;0,140025
1093,4408;0,140014
1094,4050;0,140125
1095,3693;0,140341
1096,3335;0,140646
1097,2977;0,141024
1098,2620;0,141459
1099,2262;0,141927
1100,1904;0,142395
1101,1547;0,142824
1102,1189;0,143179
1103,0831;0,143434
1104,0474;0,143575
1105,0116;0,143591
1105,9758;0,143474
1106,9401;0,143215
1107,9043;0,142803
1108,8685;0,14223
1109,8328;0,14149
1110,7970;0,140572
1111,7612;0,139463
1112,7255;0,138162
1113,6897;0,136688
1114,6539;0,135097
1115,6182;0,133473
1116,5824;0,131913
1117,5466;0,130495
1118,5109;0,129249
1119,4751;0,12815
1120,4393;0,12712
1121,4036;0,126054
1122,3678;0,12485
1123,3320;0,123434
1124,2963;0,121778
1125,2605;0,119895
1126,2247;0,117825
1127,1890;0,11562
1128,1532;0,113328
1129,1174;0,110984
1130,0817;0,108623
1131,0459;0,106276
1132,0101;0,103982
1132,9744;0,101783
1133,9386;0,0997232
1134,9028;0,0978384
1135,8671;0,0961572
1136,8313;0,0946989
1137,7955;0,0934747
1138,7598;0,0924886
1139,7240;0,0917372
1140,6882;0,0912084
1141,6525;0,0908806
1142,6167;0,0907242
1143,5809;0,0907052
1144,5452;0,0907909
1145,5094;0,0909577
1146,4736;0,0911951
1147,4379;0,0915066
1148,4021;0,0919033
1149,3663;0,0923946
1150,3306;0,0929784
1151,2948;0,0936358
1152,2590;0,0943322
1153,2233;0,0950223
1154,1875;0,0956565
1155,1517;0,0961836
1156,1160;0,09655
1157,0802;0,0966969
1158,0444;0,0965584
1159,0087;0,0960651
1159,9729;0,0951517
1160,9371;0,0937698
1161,9014;0,0918997
1162,8656;0,0895601
1163,8298;0,0868092
1164,7941;0,0837407
1165,7583;0,0804717
1166,7225;0,0771297
1167,6868;0,0738373
1168,6510;0,0706986
1169,6152;0,0677901
1170,5795;0,065157
1171,5437;0,0628154
1172,5079;0,0607607
1173,4722;0,0589752
1174,4364;0,0574349
1175,4006;0,0561128
1176,3649;0,0549809
1177,3291;0,0540134
1178,2933;0,0531897
1179,2576;0,0524965
1180,2218;0,0519264
1181,1860;0,0514731
1182,1503;0,0511276
1183,1145;0,0508765
1184,0787;0,0507053
1185,0430;0,0506034
1186,0072;0,0505673
1186,9714;0,0505999
1187,9357;0,0507069
1188,8999;0,0508928
1189,8641;0,0511592
1190,8284;0,0515061
1191,7926;0,0519343
1192,7568;0,0524467
1193,7211;0,0530466
1194,6853;0,0537349
1195,6495;0,0545057
1196,6138;0,0553438
1197,5780;0,0562255
1198,5422;0,0571227
1199,5065;0,0579689
1200,4707;0,0588352
1201,4349;0,0596711
1202,3992;0,060481
1203,3634;0,0612719
1204,3276;0,0620475
1205,2919;0,0628057
1206,2561;0,0635426
1207,2203;0,0642594
1208,1846;0,0649686
1209,1488;0,0656947
1210,1130;0,066468
1211,0773;0,0673154
1212,0415;0,0682506
1213,0057;0,0692696
1213,9700;0,0703534
1214,9342;0,071476
1215,8984;0,072613
1216,8627;0,0737465
1217,8269;0,0748658
1218,7911;0,0759643
1219,7554;0,0770356
1220,7196;0,0780707
1221,6838;0,0790582
1222,6481;0,0799869
1223,6123;0,0808485
1224,5765;0,0816399
1225,5408;0,0823635
1226,5050;0,0830267
1227,4692;0,0836395
1228,4335;0,0842117
1229,3977;0,084749
1230,3619;0,0852503
1231,3262;0,0857065
1232,2904;0,0861027
1233,2546;0,0864252
1234,2189;0,0866691
1235,1831;0,0868434
1236,1473;0,0869705
1237,1116;0,0870773
1238,0758;0,0871838
1239,0400;0,0872941
1240,0043;0,0873948
1240,9685;0,0874619
1241,9327;0,0874728
1242,8970;0,0874154
1243,8612;0,0872918
1244,8254;0,0871139
1245,7897;0,0868949
1246,7539;0,0866432
1247,7181;0,0863606
1248,6824;0,0860468
1249,6466;0,0857034
1250,6108;0,0853379
1251,5751;0,0849614
1252,5393;0,0845847
1253,5035;0,0842126
1254,4678;0,0838418
1255,4320;0,0834624
1256,3962;0,0830622
1257,3605;0,0826328
1258,3247;0,0821725
1259,2889;0,0816848
1260,2532;0,0811739
1261,2174;0,0806381
1262,1816;0,0800683
1263,1459;0,0794508
1264,1101;0,0787739
1265,0743;0,078033
1266,0386;0,0772316
1267,0028;0,0763776
1267,9670;0,0754792
1268,9313;0,074543
1269,8955;0,0735753
1270,8597;0,0725842
1271,8240;0,0715803
1272,7882;0,0705747
1273,7524;0,0695774
1274,7167;0,0685978
1275,6809;0,0676452
1276,6451;0,0667295
1277,6094;0,0658569
1278,5736;0,0650257
1279,5378;0,0642243
1280,5021;0,0634361
1281,4663;0,0626488
1282,4305;0,0618615
1283,3948;0,0610863
1284,3590;0,0603432
1285,3232;0,0596526
1286,2875;0,0590316
1287,2517;0,0584918
1288,2159;0,0580402
1289,1802;0,0576788
1290,1444;0,0574041
1291,1086;0,0572084
1292,0729;0,0570827
1293,0371;0,0570218
1294,0013;0,057026
1294,9656;0,0571003
1295,9298;0,0572505
1296,8940;0,0574799
1297,8583;0,0577889
1298,8225;0,0581764
1299,7867;0,05864
1300,7510;0,0591749
1301,7152;0,0597726
1302,6794;0,0604221
1303,6437;0,0611136
1304,6079;0,0618427
1305,5721;0,0626105
1306,5364;0,0634182
1307,5006;0,0642618
1308,4648;0,0651298
1309,4291;0,0660061
1310,3933;0,0668744
1311,3575;0,0677196
1312,3218;0,0685259
1313,2860;0,0692731
1314,2502;0,0699349
1315,2145;0,0704812
1316,1787;0,0708824
1317,1429;0,0711178
1318,1072;0,0711836
1319,0714;0,0711004
1320,0356;0,0709101
1320,9999;0,0706621
1321,9641;0,070398
1322,9283;0,0701432
1323,8926;0,0699096
1324,8568;0,0697018
1325,8210;0,069521
1326,7853;0,0693653
1327,7495;0,0692271
1328,7137;0,0690932
1329,6780;0,0689462
1330,6422;0,0687691
1331,6064;0,0685502
1332,5707;0,0682848
1333,5349;0,0679722
1334,4991;0,0676077
1335,4634;0,0671753
1336,4276;0,0666479
1337,3918;0,0660013
1338,3561;0,0652429
1339,3203;0,0644339
1340,2845;0,0636713
1341,2488;0,0630314
1342,2130;0,0625323
1343,1772;0,0621465
1344,1415;0,061836
1345,1057;0,0615769
1346,0699;0,0613676
1347,0342;0,0612249
1347,9984;0,061173
1348,9626;0,0612309
1349,9269;0,0614026
1350,8911;0,0616749
1351,8553;0,0620241
1352,8196;0,0624265
1353,7838;0,0628679
1354,7480;0,0633463
1355,7123;0,0638653
1356,6765;0,064424
1357,6407;0,0650123
1358,6050;0,0656153
1359,5692;0,0662191
