TITLE;
DATA TYPE;INFRARED SPECTRUM
ORIGIN;JASCO
OWNER;
DATE;25/01/29
TIME;14:06:39
SPECTROMETER/DATA SYSTEM;
LOCALE;9226
RESOLUTION;
DELTAX;0,964233
XUNITS;1/CM
YUNITS;ABSORBANCE
FIRSTX;  399,1927
LASTX; 4000,6047
NPOINTS;    3736
FIRSTY;     0,17707
MAXY;     0,21456
MINY;     0,01013
XYDATA
399,1927;0,177069
400,1569;0,17625
401,1211;0,174865
402,0854;0,173364
403,0496;0,172223
404,0138;0,171789
404,9781;0,17216
405,9423;0,173114
406,9065;0,174203
407,8708;0,175002
408,8350;0,175339
409,7992;0,175338
410,7635;0,175271
411,7277;0,175337
412,6919;0,175554
413,6562;0,175806
414,6204;0,175987
415,5846;0,176103
416,5489;0,176278
417,5131;0,176696
418,4773;0,17742
419,4416;0,178231
420,4058;0,17879
421,3700;0,178977
422,3343;0,178909
423,2985;0,178764
424,2627;0,178666
425,2270;0,178666
426,1912;0,178755
427,1554;0,178901
428,1197;0,179089
429,0839;0,179321
430,0481;0,179606
431,0124;0,179927
431,9766;0,180239
432,9408;0,180484
433,9051;0,180612
434,8693;0,1806
435,8335;0,18045
436,7978;0,180173
437,7620;0,17978
438,7262;0,179295
439,6905;0,178772
440,6547;0,178306
441,6189;0,178012
442,5832;0,177949
443,5474;0,178048
444,5116;0,178111
445,4759;0,177932
446,4401;0,177431
447,4043;0,176715
448,3686;0,176007
449,3328;0,175525
450,2970;0,175367
451,2613;0,175463
452,2255;0,175635
453,1897;0,175698
454,1540;0,17556
455,1182;0,175241
456,0824;0,17485
457,0467;0,174526
458,0109;0,174383
458,9751;0,174453
459,9394;0,174669
460,9036;0,174915
461,8678;0,175073
462,8321;0,175065
463,7963;0,17487
464,7605;0,174537
465,7248;0,174173
466,6890;0,173877
467,6532;0,173684
468,6175;0,173539
469,5817;0,173349
470,5459;0,173063
471,5102;0,172737
472,4744;0,172526
473,4386;0,172586
474,4029;0,172956
475,3671;0,17353
476,3313;0,174132
477,2956;0,174595
478,2598;0,174814
479,2240;0,174759
480,1883;0,174472
481,1525;0,174043
482,1167;0,173596
483,0810;0,173264
484,0452;0,173165
485,0094;0,173366
485,9737;0,173851
486,9379;0,174524
487,9021;0,17524
488,8664;0,175851
489,8306;0,176238
490,7948;0,176339
491,7591;0,176179
492,7233;0,175867
493,6875;0,175547
494,6518;0,17533
495,6160;0,175253
496,5802;0,175279
497,5445;0,175337
498,5087;0,175366
499,4729;0,175352
500,4372;0,175332
501,4014;0,175367
502,3656;0,175498
503,3299;0,175708
504,2941;0,175929
505,2583;0,176086
506,2226;0,176147
507,1868;0,176145
508,1510;0,176163
509,1153;0,176291
510,0795;0,176574
511,0437;0,176983
512,0080;0,177437
512,9722;0,177848
513,9365;0,178163
514,9007;0,17838
515,8649;0,178542
516,8292;0,178699
517,7934;0,178877
518,7576;0,179063
519,7219;0,179215
520,6861;0,179304
521,6503;0,17932
522,6146;0,179274
523,5788;0,179184
524,5430;0,179067
525,5073;0,178939
526,4715;0,178809
527,4357;0,178672
528,4000;0,178511
529,3642;0,1783
530,3284;0,178015
531,2927;0,177643
532,2569;0,177194
533,2211;0,176696
534,1854;0,176195
535,1496;0,17574
536,1138;0,175374
537,0781;0,175127
538,0423;0,175003
539,0065;0,174981
539,9708;0,175021
540,9350;0,175078
541,8992;0,175127
542,8635;0,175172
543,8277;0,175238
544,7919;0,175348
545,7562;0,175505
546,7204;0,175686
547,6846;0,175857
548,6489;0,175998
549,6131;0,176126
550,5773;0,176283
551,5416;0,176519
552,5058;0,17686
553,4700;0,177291
554,4343;0,177749
555,3985;0,178134
556,3627;0,17833
557,3270;0,17824
558,2912;0,17781
559,2554;0,177055
560,2197;0,176053
561,1839;0,174923
562,1481;0,173791
563,1124;0,172746
564,0766;0,171824
565,0408;0,171017
566,0051;0,170302
566,9693;0,169665
567,9335;0,169115
568,8978;0,168665
569,8620;0,168312
570,8262;0,168028
571,7905;0,167765
572,7547;0,167484
573,7189;0,167168
574,6832;0,166827
575,6474;0,166486
576,6116;0,166172
577,5759;0,1659
578,5401;0,165672
579,5043;0,165477
580,4686;0,165298
581,4328;0,165114
582,3970;0,164908
583,3613;0,164677
584,3255;0,164434
585,2897;0,164207
586,2540;0,164026
587,2182;0,163903
588,1824;0,163825
589,1467;0,163757
590,1109;0,163661
591,0751;0,16351
592,0394;0,163308
593,0036;0,163083
593,9678;0,162867
594,9321;0,162677
595,8963;0,162501
596,8605;0,162303
597,8248;0,162044
598,7890;0,161698
599,7532;0,161267
600,7175;0,160786
601,6817;0,160304
602,6459;0,159864
603,6102;0,159487
604,5744;0,159164
605,5386;0,15886
606,5029;0,158525
607,4671;0,158115
608,4313;0,157605
609,3956;0,157003
610,3598;0,156343
611,3240;0,155667
612,2883;0,155003
613,2525;0,154352
614,2167;0,153696
615,1810;0,153011
616,1452;0,152283
617,1094;0,151515
618,0737;0,150715
619,0379;0,149884
620,0021;0,149012
620,9664;0,148092
621,9306;0,147138
622,8948;0,146192
623,8591;0,145312
624,8233;0,144558
625,7875;0,14392
626,7518;0,143365
627,7160;0,142838
628,6802;0,142295
629,6445;0,141719
630,6087;0,141116
631,5729;0,1405
632,5372;0,13988
633,5014;0,139251
634,4656;0,138609
635,4299;0,137963
636,3941;0,13733
637,3583;0,136732
638,3226;0,136184
639,2868;0,135684
640,2510;0,135217
641,2153;0,134766
642,1795;0,134316
643,1437;0,133859
644,1080;0,133384
645,0722;0,132883
646,0364;0,132354
647,0007;0,131806
647,9649;0,131271
648,9291;0,130797
649,8934;0,130434
650,8576;0,130205
651,8218;0,130097
652,7861;0,130073
653,7503;0,130099
654,7145;0,130164
655,6788;0,130286
656,6430;0,130491
657,6072;0,130775
658,5715;0,131084
659,5357;0,131326
660,4999;0,131421
661,4642;0,131361
662,4284;0,131229
663,3926;0,131137
664,3569;0,131137
665,3211;0,131136
666,2853;0,130845
667,2496;0,129873
668,2138;0,128144
669,1780;0,126235
670,1423;0,124732
671,1065;0,123641
672,0707;0,122711
673,0350;0,121734
673,9992;0,120587
674,9634;0,119246
675,9277;0,117795
676,8919;0,116378
677,8561;0,115101
678,8204;0,113989
679,7846;0,113015
680,7488;0,11215
681,7131;0,111387
682,6773;0,110728
683,6415;0,110164
684,6058;0,109677
685,5700;0,10925
686,5342;0,10888
687,4985;0,10857
688,4627;0,108322
689,4269;0,108128
690,3912;0,107974
691,3554;0,107835
692,3196;0,107689
693,2839;0,107523
694,2481;0,107332
695,2123;0,107126
696,1766;0,106922
697,1408;0,10673
698,1050;0,106548
699,0693;0,106358
700,0335;0,106137
700,9977;0,105871
701,9620;0,105561
702,9262;0,105221
703,8904;0,104871
704,8547;0,104514
705,8189;0,104141
706,7831;0,103736
707,7474;0,103292
708,7116;0,102813
709,6758;0,102311
710,6401;0,101794
711,6043;0,101265
712,5685;0,100714
713,5328;0,100132
714,4970;0,0995186
715,4612;0,0990825
716,4255;0,0983807
717,3897;0,09765
718,3539;0,0969051
719,3182;0,0961669
720,2824;0,0954562
721,2466;0,0947815
722,2109;0,0941304
723,1751;0,0934741
724,1393;0,0927837
725,1036;0,0920477
726,0678;0,0912806
727,0320;0,090518
727,9963;0,0897999
728,9605;0,0891525
729,9247;0,0885799
730,8890;0,0880673
731,8532;0,0875931
732,8174;0,0871394
733,7817;0,0866965
734,7459;0,0862634
735,7101;0,0858445
736,6744;0,0854456
737,6386;0,085069
738,6028;0,0847099
739,5671;0,0843575
740,5313;0,0839998
741,4955;0,0836305
742,4598;0,0832517
743,4240;0,0828709
744,3882;0,0824946
745,3525;0,0821245
746,3167;0,0817585
747,2809;0,0813943
748,2452;0,0810317
749,2094;0,0806703
750,1736;0,0803055
751,1379;0,079929
752,1021;0,0795344
753,0663;0,079124
754,0306;0,0787103
754,9948;0,0783084
755,9590;0,0779249
756,9233;0,0775523
757,8875;0,0771745
758,8517;0,0767788
759,8160;0,0763675
760,7802;0,0759583
761,7444;0,0755738
762,7087;0,0752281
763,6729;0,0749198
764,6371;0,0746359
765,6014;0,0743619
766,5656;0,0740902
767,5298;0,0738198
768,4941;0,0735504
769,4583;0,0732758
770,4225;0,072985
771,3868;0,072669
772,3510;0,0723295
773,3152;0,0719813
774,2795;0,0716467
775,2437;0,0713441
776,2079;0,0710787
777,1722;0,0708407
778,1364;0,070611
779,1006;0,0703709
780,0649;0,0701101
781,0291;0,069829
781,9933;0,0695353
782,9576;0,0692385
783,9218;0,0689445
784,8860;0,0686546
785,8503;0,0683675
786,8145;0,068084
787,7787;0,0678098
788,7430;0,0675538
789,7072;0,0673236
790,6714;0,0671204
791,6357;0,066938
792,5999;0,0667669
793,5641;0,0666006
794,5284;0,066439
795,4926;0,0662863
796,4568;0,0661453
797,4211;0,0660115
798,3853;0,0658739
799,3495;0,0657208
800,3138;0,0655478
801,2780;0,0653616
802,2422;0,0651771
803,2065;0,0650098
804,1707;0,0648686
805,1349;0,0647534
806,0992;0,0646577
807,0634;0,0645732
808,0276;0,0644932
808,9919;0,0644124
809,9561;0,0643269
810,9203;0,0642338
811,8846;0,0641339
812,8488;0,0640334
813,8130;0,0639433
814,7773;0,0638755
815,7415;0,0638373
816,7057;0,0638281
817,6700;0,0638403
818,6342;0,0638635
819,5984;0,0638884
820,5627;0,0639081
821,5269;0,0639181
822,4911;0,0639149
823,4554;0,0638965
824,4196;0,0638643
825,3839;0,0638231
826,3481;0,063779
827,3123;0,0637348
828,2766;0,063688
829,2408;0,0636318
830,2050;0,0635593
831,1693;0,063468
832,1335;0,0633605
833,0977;0,063241
834,0620;0,0631116
835,0262;0,0629697
835,9904;0,062811
836,9547;0,0626334
837,9189;0,0624405
838,8831;0,0622423
839,8474;0,0620506
840,8116;0,0618756
841,7758;0,0617223
842,7401;0,0615904
843,7043;0,0614762
844,6685;0,0613746
845,6328;0,061281
846,5970;0,0611917
847,5612;0,0611037
848,5255;0,0610147
849,4897;0,0609231
850,4539;0,060828
851,4182;0,0607306
852,3824;0,060634
853,3466;0,0605439
854,3109;0,060467
855,2751;0,0604098
856,2393;0,0603758
857,2036;0,0603648
858,1678;0,0603727
859,1320;0,0603941
860,0963;0,0604249
861,0605;0,0604648
862,0247;0,0605175
862,9890;0,0605884
863,9532;0,0606828
864,9174;0,0608042
865,8817;0,0609545
866,8459;0,0611348
867,8101;0,0613459
868,7744;0,0615876
869,7386;0,061857
870,7028;0,0621474
871,6671;0,0624482
872,6313;0,0627466
873,5955;0,0630302
874,5598;0,0632897
875,5240;0,0635212
876,4882;0,063727
877,4525;0,0639171
878,4167;0,0641077
879,3809;0,0643197
880,3452;0,0645753
881,3094;0,0648939
882,2736;0,0652894
883,2379;0,0657694
884,2021;0,0663358
885,1663;0,0669865
886,1306;0,0677166
887,0948;0,0685175
888,0590;0,0693749
889,0233;0,0702674
889,9875;0,0711673
890,9517;0,0720445
891,9160;0,0728708
892,8802;0,073623
893,8444;0,0742814
894,8087;0,0748265
895,7729;0,0752377
896,7371;0,0754953
897,7014;0,0755872
898,6656;0,0755148
899,6298;0,0752952
900,5941;0,0749568
901,5583;0,0745317
902,5225;0,0740503
903,4868;0,0735401
904,4510;0,0730282
905,4152;0,0725429
906,3795;0,0721108
907,3437;0,0717518
908,3079;0,0714737
909,2722;0,0712741
910,2364;0,0711453
911,2007;0,0710815
912,1649;0,0710816
913,1292;0,0711466
914,0934;0,0712747
915,0576;0,071458
916,0219;0,0716842
916,9861;0,0719415
917,9503;0,0722227
918,9146;0,0725258
919,8788;0,0728515
920,8430;0,0731978
921,8073;0,0735579
922,7715;0,0739194
923,7357;0,0742681
924,7000;0,0745915
925,6642;0,0748825
926,6284;0,0751409
927,5927;0,0753735
928,5569;0,0755909
929,5211;0,0758043
930,4854;0,0760228
931,4496;0,0762529
932,4138;0,0764992
933,3781;0,0767666
934,3423;0,0770608
935,3065;0,0773885
936,2708;0,0777569
937,2350;0,0781741
938,1992;0,0786497
939,1635;0,0791934
940,1277;0,0798127
941,0919;0,0805097
942,0562;0,0812802
943,0204;0,0821159
943,9846;0,0830092
944,9489;0,0839575
945,9131;0,0849631
946,8773;0,0860305
947,8416;0,0871619
948,8058;0,0883568
949,7700;0,089614
950,7343;0,0909342
951,6985;0,0923217
952,6627;0,0937811
953,6270;0,0953136
954,5912;0,096914
955,5554;0,0985713
956,5197;0,100273
957,4839;0,102007
958,4481;0,103769
959,4124;0,105557
960,3766;0,107372
961,3408;0,109215
962,3051;0,111083
963,2693;0,112968
964,2335;0,114858
965,1978;0,116743
966,1620;0,118624
967,1262;0,120515
968,0905;0,122449
969,0547;0,12446
970,0189;0,126581
970,9832;0,12883
971,9474;0,131216
972,9116;0,133741
973,8759;0,136415
974,8401;0,139253
975,8043;0,142276
976,7686;0,145489
977,7328;0,148872
978,6970;0,152368
979,6613;0,155889
980,6255;0,15933
981,5897;0,162588
982,5540;0,165582
983,5182;0,168263
984,4824;0,170623
985,4467;0,172685
986,4109;0,174492
987,3751;0,176092
988,3394;0,177528
989,3036;0,178821
990,2678;0,179975
991,2321;0,180986
992,1963;0,181848
993,1605;0,182567
994,1248;0,183165
995,0890;0,183675
996,0532;0,184129
997,0175;0,18455
997,9817;0,184949
998,9459;0,185335
999,9102;0,185723
1000,8744;0,186145
1001,8386;0,186645
1002,8029;0,187268
1003,7671;0,188048
1004,7313;0,189001
1005,6956;0,190126
1006,6598;0,191415
1007,6240;0,19286
1008,5883;0,194452
1009,5525;0,196174
1010,5167;0,197996
1011,4810;0,199869
1012,4452;0,201731
1013,4094;0,203522
1014,3737;0,205192
1015,3379;0,206709
1016,3021;0,208061
1017,2664;0,209249
1018,2306;0,210283
1019,1948;0,21117
1020,1591;0,211918
1021,1233;0,212534
1022,0875;0,213031
1023,0518;0,213431
1024,0160;0,213755
1024,9802;0,214027
1025,9445;0,214256
1026,9087;0,214438
1027,8729;0,214551
1028,8372;0,214559
1029,8014;0,214415
1030,7656;0,214068
1031,7299;0,213466
1032,6941;0,212569
1033,6583;0,211365
1034,6226;0,209884
1035,5868;0,208199
1036,5510;0,206418
1037,5153;0,204662
1038,4795;0,203041
1039,4437;0,201636
1040,4080;0,20049
1041,3722;0,199609
1042,3364;0,198968
1043,3007;0,198522
1044,2649;0,198211
1045,2291;0,197966
1046,1934;0,197722
1047,1576;0,197423
1048,1218;0,197023
1049,0861;0,196486
1050,0503;0,195785
1051,0145;0,1949
1051,9788;0,193822
1052,9430;0,192553
1053,9072;0,191111
1054,8715;0,189516
1055,8357;0,187783
1056,7999;0,185902
1057,7642;0,183844
1058,7284;0,181572
1059,6926;0,179068
1060,6569;0,176352
1061,6211;0,173492
1062,5853;0,170594
1063,5496;0,16777
1064,5138;0,165113
1065,4780;0,162675
1066,4423;0,160465
1067,4065;0,15846
1068,3707;0,156617
1069,3350;0,154894
1070,2992;0,153248
1071,2634;0,151638
1072,2277;0,150024
1073,1919;0,148366
1074,1561;0,14663
1075,1204;0,144798
1076,0846;0,142871
1077,0488;0,140876
1078,0131;0,138861
1078,9773;0,136886
1079,9415;0,135013
1080,9058;0,133291
1081,8700;0,131751
1082,8342;0,130399
1083,7985;0,129225
1084,7627;0,128209
1085,7269;0,127328
1086,6912;0,126566
1087,6554;0,125913
1088,6196;0,125366
1089,5839;0,124923
1090,5481;0,124578
1091,5123;0,124324
1092,4766;0,124149
1093,4408;0,124043
1094,4050;0,123996
1095,3693;0,124003
1096,3335;0,124059
1097,2977;0,124158
1098,2620;0,124288
1099,2262;0,124432
1100,1904;0,124565
1101,1547;0,124658
1102,1189;0,124684
1103,0831;0,124625
1104,0474;0,124474
1105,0116;0,12424
1105,9758;0,123942
1106,9401;0,123602
1107,9043;0,123227
1108,8685;0,122803
1109,8328;0,12229
1110,7970;0,121635
1111,7612;0,120793
1112,7255;0,119748
1113,6897;0,118525
1114,6539;0,117188
1115,6182;0,115821
1116,5824;0,114503
1117,5466;0,113283
1118,5109;0,112172
1119,4751;0,11114
1120,4393;0,110131
1121,4036;0,109073
1122,3678;0,107898
1123,3320;0,106559
1124,2963;0,105035
1125,2605;0,103335
1126,2247;0,101496
1127,1890;0,0995608
1128,1532;0,0975768
1129,1174;0,09558
1130,0817;0,0935964
1131,0459;0,0916454
1132,0101;0,0897465
1132,9744;0,0879243
1133,9386;0,0862109
1134,9028;0,084644
1135,8671;0,0832621
1136,8313;0,0820978
1137,7955;0,0811713
1138,7598;0,0804875
1139,7240;0,0800362
1140,6882;0,0797963
1141,6525;0,079741
1142,6167;0,0798418
1143,5809;0,0800704
1144,5452;0,0804001
1145,5094;0,0808064
1146,4736;0,0812702
1147,4379;0,0817791
1148,4021;0,0823274
1149,3663;0,0829107
1150,3306;0,0835197
1151,2948;0,0841333
1152,2590;0,0847181
1153,2233;0,0852322
1154,1875;0,0856327
1155,1517;0,085881
1156,1160;0,085944
1157,0802;0,0857899
1158,0444;0,0853842
1159,0087;0,0846871
1159,9729;0,0836581
1160,9371;0,0822653
1161,9014;0,080497
1162,8656;0,0783706
1163,8298;0,0759359
1164,7941;0,0732701
1165,7583;0,0704682
1166,7225;0,0676306
1167,6868;0,0648504
1168,6510;0,062205
1169,6152;0,0597499
1170,5795;0,0575184
1171,5437;0,0555235
1172,5079;0,0537629
1173,4722;0,0522235
1174,4364;0,0508859
1175,4006;0,0497275
1176,3649;0,0487253
1177,3291;0,0478587
1178,2933;0,0471109
1179,2576;0,0464688
1180,2218;0,0459221
1181,1860;0,0454622
1182,1503;0,0450811
1183,1145;0,0447729
1184,0787;0,0445349
1185,0430;0,0443682
1186,0072;0,0442774
1186,9714;0,044268
1187,9357;0,0443443
1188,8999;0,0445076
1189,8641;0,0447565
1190,8284;0,0450872
1191,7926;0,0454952
1192,7568;0,0459749
1193,7211;0,0465191
1194,6853;0,0471189
1195,6495;0,0477626
1196,6138;0,0484376
1197,5780;0,0491312
1198,5422;0,0498329
1199,5065;0,0505182
1200,4707;0,0512156
1201,4349;0,0519003
1202,3992;0,0525646
1203,3634;0,0531995
1204,3276;0,053797
1205,2919;0,0543529
1206,2561;0,0548699
1207,2203;0,055359
1208,1846;0,0558385
1209,1488;0,0563315
1210,1130;0,0568619
1211,0773;0,0574501
1212,0415;0,0581097
1213,0057;0,0588451
1213,9700;0,0596515
1214,9342;0,0605163
1215,8984;0,0614216
1216,8627;0,0623464
1217,8269;0,0632695
1218,7911;0,0641728
1219,7554;0,0650435
1220,7196;0,0658748
1221,6838;0,0666652
1222,6481;0,0674162
1223,6123;0,0681294
1224,5765;0,0688051
1225,5408;0,069442
1226,5050;0,0700377
1227,4692;0,07059
1228,4335;0,0710966
1229,3977;0,0715549
1230,3619;0,0719615
1231,3262;0,0723118
1232,2904;0,0726013
1233,2546;0,0728268
1234,2189;0,0729888
1235,1831;0,073093
1236,1473;0,0731493
1237,1116;0,0731697
1238,0758;0,0731643
1239,0400;0,0731385
1240,0043;0,073092
1240,9685;0,0730201
1241,9327;0,0729166
1242,8970;0,0727763
1243,8612;0,0725954
1244,8254;0,072372
1245,7897;0,0721059
1246,7539;0,0717992
1247,7181;0,0714576
1248,6824;0,0710899
1249,6466;0,070708
1250,6108;0,0703251
1251,5751;0,0699533
1252,5393;0,069602
1253,5035;0,0692755
1254,4678;0,0689719
1255,4320;0,0686823
1256,3962;0,0683939
1257,3605;0,0680935
1258,3247;0,0677715
1259,2889;0,067424
1260,2532;0,0670516
1261,2174;0,0666557
1262,1816;0,0662354
1263,1459;0,0657872
1264,1101;0,0653069
1265,0743;0,0647916
1266,0386;0,0642409
1267,0028;0,0636563
1267,9670;0,0630399
1268,9313;0,0623951
1269,8955;0,0617275
1270,8597;0,0610453
1271,8240;0,0603581
1272,7882;0,0596745
1273,7524;0,0590006
1274,7167;0,0583398
1275,6809;0,0576944
1276,6451;0,0570666
1277,6094;0,0564571
1278,5736;0,0558637
1279,5378;0,0552808
1280,5021;0,0547018
1281,4663;0,0541237
1282,4305;0,0535502
1283,3948;0,0529917
1284,3590;0,052462
1285,3232;0,0519745
1286,2875;0,0515393
1287,2517;0,0511623
1288,2159;0,0508448
1289,1802;0,0505841
1290,1444;0,0503747
1291,1086;0,0502108
1292,0729;0,0500906
1293,0371;0,0500188
1294,0013;0,0500056
1294,9656;0,0500624
1295,9298;0,0501954
1296,8940;0,0504022
1297,8583;0,050673
1298,8225;0,0509954
1299,7867;0,0513602
1300,7510;0,0517631
1301,7152;0,0522039
1302,6794;0,0526836
1303,6437;0,0532026
1304,6079;0,0537591
1305,5721;0,0543492
1306,5364;0,0549664
1307,5006;0,0556019
1308,4648;0,0562462
1309,4291;0,056891
1310,3933;0,057529
1311,3575;0,058152
1312,3218;0,0587467
1313,2860;0,059293
1314,2502;0,0597652
1315,2145;0,0601371
1316,1787;0,0603886
1317,1429;0,0605117
1318,1072;0,0605148
1319,0714;0,0604239
1320,0356;0,0602749
1320,9999;0,0601029
1321,9641;0,059932
1322,9283;0,0597746
1323,8926;0,0596352
1324,8568;0,0595168
1325,8210;0,0594214
1326,7853;0,059349
1327,7495;0,0592932
1328,7137;0,0592408
1329,6780;0,0591743
1330,6422;0,0590765
1331,6064;0,0589357
1332,5707;0,0587464
1333,5349;0,0585076
1334,4991;0,058217
1335,4634;0,0578668
1336,4276;0,0574451
1337,3918;0,0569459
1338,3561;0,0563837
1339,3203;0,0558015
1340,2845;0,0552559
1341,2488;0,0547866
1342,2130;0,0544
1343,1772;0,0540791
1344,1415;0,0538036
1345,1057;0,0535645
1346,0699;0,0533686
1347,0342;0,0532353
1347,9984;0,0531863
1348,9626;0,0532346
1349,9269;0,0533774
1350,8911;0,0535968
1351,8553;0,0538684
1352,8196;0,0541723
1353,7838;0,0545012
1354,7480;0,0548592
1355,7123;0,0552523
1356,6765;0,0556786
1357,6407;0,0561258
1358,6050;0,056578
