TITLE;
DATA TYPE;INFRARED SPECTRUM
ORIGIN;JASCO
OWNER;
DATE;25/03/14
TIME;09:09:31
SPECTROMETER/DATA SYSTEM;
LOCALE;9226
RESOLUTION;
DELTAX;0,964233
XUNITS;1/CM
YUNITS;ABSORBANCE
FIRSTX;  399,1927
LASTX; 4000,6047
NPOINTS;    3736
FIRSTY;     0,23181
MAXY;     0,29834
MINY;     0,01486
XYDATA
399,1927;0,231811
400,1569;0,229904
401,1211;0,228837
402,0854;0,228415
403,0496;0,228218
404,0138;0,2279
404,9781;0,227332
405,9423;0,226628
406,9065;0,226026
407,8708;0,225689
408,8350;0,225592
409,7992;0,225591
410,7635;0,225594
411,7277;0,225687
412,6919;0,226084
413,6562;0,226973
414,6204;0,228409
415,5846;0,230305
416,5489;0,232447
417,5131;0,234473
418,4773;0,235934
419,4416;0,23663
420,4058;0,236864
421,3700;0,237106
422,3343;0,237562
423,2985;0,238151
424,2627;0,238666
425,2270;0,23893
426,1912;0,238914
427,1554;0,238763
428,1197;0,238714
429,0839;0,238944
430,0481;0,239459
431,0124;0,240077
431,9766;0,240526
432,9408;0,240594
433,9051;0,240262
434,8693;0,239707
435,8335;0,239178
436,7978;0,238825
437,7620;0,238604
438,7262;0,238331
439,6905;0,23783
440,6547;0,237063
441,6189;0,236172
442,5832;0,235406
443,5474;0,23496
444,5116;0,234837
445,4759;0,234841
446,4401;0,234713
447,4043;0,234273
448,3686;0,233479
449,3328;0,232408
450,2970;0,231209
451,2613;0,230052
452,2255;0,229079
453,1897;0,228371
454,1540;0,227938
455,1182;0,227727
456,0824;0,227642
457,0467;0,227563
458,0109;0,227391
458,9751;0,227085
459,9394;0,226663
460,9036;0,226168
461,8678;0,225631
462,8321;0,225084
463,7963;0,224582
464,7605;0,224203
465,7248;0,224014
466,6890;0,224013
467,6532;0,224104
468,6175;0,224137
469,5817;0,223998
470,5459;0,223687
471,5102;0,223359
472,4744;0,223237
473,4386;0,223448
474,4029;0,223912
475,3671;0,224402
476,3313;0,224711
477,2956;0,224777
478,2598;0,224704
479,2240;0,224692
480,1883;0,224913
481,1525;0,225417
482,1167;0,226112
483,0810;0,226827
484,0452;0,227422
485,0094;0,227855
485,9737;0,228189
486,9379;0,228519
487,9021;0,228905
488,8664;0,229349
489,8306;0,229821
490,7948;0,230287
491,7591;0,230726
492,7233;0,231128
493,6875;0,23148
494,6518;0,231773
495,6160;0,232013
496,5802;0,232243
497,5445;0,232539
498,5087;0,232972
499,4729;0,233566
500,4372;0,234259
501,4014;0,234908
502,3656;0,235356
503,3299;0,235534
504,2941;0,235516
505,2583;0,235482
506,2226;0,235624
507,1868;0,236057
508,1510;0,236767
509,1153;0,237636
510,0795;0,238515
511,0437;0,239308
512,0080;0,240016
512,9722;0,240712
513,9365;0,241486
514,9007;0,242381
515,8649;0,243355
516,8292;0,244272
517,7934;0,244959
518,7576;0,2453
519,7219;0,245306
520,6861;0,245106
521,6503;0,244862
522,6146;0,244698
523,5788;0,244661
524,5430;0,244723
525,5073;0,2448
526,4715;0,244794
527,4357;0,24464
528,4000;0,244336
529,3642;0,243922
530,3284;0,243454
531,2927;0,242982
532,2569;0,242539
533,2211;0,242135
534,1854;0,241761
535,1496;0,241391
536,1138;0,241012
537,0781;0,240641
538,0423;0,240339
539,0065;0,240193
539,9708;0,240279
540,9350;0,240622
541,8992;0,241185
542,8635;0,241881
543,8277;0,242621
544,7919;0,243345
545,7562;0,244045
546,7204;0,24475
547,6846;0,245486
548,6489;0,246254
549,6131;0,24702
550,5773;0,247743
551,5416;0,248403
552,5058;0,249023
553,4700;0,249652
554,4343;0,250319
555,3985;0,250987
556,3627;0,25152
557,3270;0,251712
558,2912;0,251363
559,2554;0,250373
560,2197;0,248798
561,1839;0,246839
562,1481;0,244765
563,1124;0,2428
564,0766;0,241053
565,0408;0,239517
566,0051;0,238131
566,9693;0,236863
567,9335;0,235752
568,8978;0,234884
569,8620;0,234315
570,8262;0,234016
571,7905;0,233878
572,7547;0,233763
573,7189;0,233573
574,6832;0,233288
575,6474;0,232959
576,6116;0,232668
577,5759;0,232478
578,5401;0,2324
579,5043;0,232392
580,4686;0,232392
581,4328;0,232337
582,3970;0,232188
583,3613;0,231942
584,3255;0,231633
585,2897;0,231319
586,2540;0,231061
587,2182;0,230906
588,1824;0,230862
589,1467;0,230904
590,1109;0,230978
591,0751;0,231018
592,0394;0,230961
593,0036;0,230767
593,9678;0,230422
594,9321;0,229943
595,8963;0,229363
596,8605;0,22873
597,8248;0,228094
598,7890;0,227494
599,7532;0,226944
600,7175;0,226431
601,6817;0,22592
602,6459;0,225382
603,6102;0,224808
604,5744;0,224213
605,5386;0,223623
606,5029;0,223048
607,4671;0,222471
608,4313;0,221852
609,3956;0,221159
610,3598;0,220402
611,3240;0,219644
612,2883;0,218972
613,2525;0,218441
614,2167;0,21802
615,1810;0,217569
616,1452;0,216881
617,1094;0,215772
618,0737;0,21419
619,0379;0,212254
620,0021;0,210185
620,9664;0,208203
621,9306;0,206441
622,8948;0,204933
623,8591;0,203648
624,8233;0,202506
625,7875;0,201515
626,7518;0,200654
627,7160;0,199911
628,6802;0,199262
629,6445;0,198667
630,6087;0,19807
631,5729;0,197425
632,5372;0,196712
633,5014;0,195952
634,4656;0,195204
635,4299;0,194542
636,3941;0,19402
637,3583;0,193644
638,3226;0,193364
639,2868;0,193096
640,2510;0,192758
641,2153;0,192312
642,1795;0,191784
643,1437;0,191251
644,1080;0,190799
645,0722;0,19048
646,0364;0,190286
647,0007;0,190157
647,9649;0,190019
648,9291;0,189831
649,8934;0,189611
650,8576;0,189432
651,8218;0,189386
652,7861;0,189542
653,7503;0,189912
654,7145;0,190456
655,6788;0,191091
656,6430;0,19173
657,6072;0,192306
658,5715;0,192774
659,5357;0,193079
660,4999;0,193146
661,4642;0,192906
662,4284;0,192341
663,3926;0,191494
664,3569;0,190482
665,3211;0,189536
666,2853;0,18899
667,2496;0,18899
668,2138;0,188972
669,1780;0,188053
670,1423;0,186277
671,1065;0,184244
672,0707;0,182188
673,0350;0,180056
673,9992;0,177819
674,9634;0,175543
675,9277;0,173334
676,8919;0,171252
677,8561;0,169293
678,8204;0,16743
679,7846;0,165668
680,7488;0,164061
681,7131;0,162669
682,6773;0,161509
683,6415;0,160545
684,6058;0,159713
685,5700;0,158961
686,5342;0,15826
687,4985;0,157603
688,4627;0,156988
689,4269;0,156401
690,3912;0,155823
691,3554;0,155239
692,3196;0,154641
693,2839;0,154023
694,2481;0,153393
695,2123;0,152762
696,1766;0,152149
697,1408;0,151567
698,1050;0,151011
699,0693;0,150457
700,0335;0,149868
700,9977;0,149215
701,9620;0,148492
702,9262;0,14772
703,8904;0,146927
704,8547;0,146144
705,8189;0,145378
706,7831;0,144613
707,7474;0,143827
708,7116;0,143007
709,6758;0,142151
710,6401;0,141258
711,6043;0,140316
712,5685;0,139308
713,5328;0,138243
714,4970;0,137173
715,4612;0,135664
716,4255;0,134917
717,3897;0,134335
718,3539;0,133772
719,3182;0,133008
720,2824;0,13187
721,2466;0,130345
722,2109;0,128594
723,1751;0,126852
724,1393;0,1253
725,1036;0,123992
726,0678;0,122873
727,0320;0,121844
727,9963;0,12082
728,9605;0,119776
729,9247;0,118733
730,8890;0,117727
731,8532;0,11679
732,8174;0,115935
733,7817;0,115165
734,7459;0,114479
735,7101;0,113868
736,6744;0,113311
737,6386;0,112776
738,6028;0,112232
739,5671;0,111654
740,5313;0,111043
741,4955;0,110417
742,4598;0,109808
743,4240;0,109242
744,3882;0,108721
745,3525;0,108227
746,3167;0,107721
747,2809;0,107171
748,2452;0,106566
749,2094;0,105921
750,1736;0,105276
751,1379;0,104669
752,1021;0,104123
753,0663;0,103634
754,0306;0,103174
754,9948;0,10271
755,9590;0,102217
756,9233;0,10169
757,8875;0,10114
758,8517;0,100588
759,8160;0,100055
760,7802;0,0995543
761,7444;0,0990889
762,7087;0,098655
763,6729;0,0982443
764,6371;0,0978472
765,6014;0,097455
766,5656;0,0970608
767,5298;0,0966614
768,4941;0,0962586
769,4583;0,0958593
770,4225;0,0954744
771,3868;0,0951137
772,3510;0,0947801
773,3152;0,0944652
774,2795;0,0941506
775,2437;0,0938163
776,2079;0,0934522
777,1722;0,0930657
778,1364;0,0926795
779,1006;0,092319
780,0649;0,0919973
781,0291;0,0917076
781,9933;0,0914285
782,9576;0,0911383
783,9218;0,0908273
784,8860;0,0905007
785,8503;0,0901688
786,8145;0,089836
787,7787;0,0894953
788,7430;0,0891364
789,7072;0,0887583
790,6714;0,0883784
791,6357;0,0880283
792,5999;0,0877376
793,5641;0,0875171
794,5284;0,0873497
795,4926;0,0871983
796,4568;0,0870222
797,4211;0,0867959
798,3853;0,0865184
799,3495;0,0862114
800,3138;0,0859082
801,2780;0,0856404
802,2422;0,0854263
803,2065;0,0852654
804,1707;0,0851386
805,1349;0,0850152
806,0992;0,0848656
807,0634;0,0846746
808,0276;0,08445
808,9919;0,0842181
809,9561;0,0840096
810,9203;0,0838421
811,8846;0,0837106
812,8488;0,0835937
813,8130;0,0834702
814,7773;0,0833347
815,7415;0,0831999
816,7057;0,0830843
817,6700;0,0829937
818,6342;0,0829142
819,5984;0,08282
820,5627;0,0826923
821,5269;0,0825337
822,4911;0,0823663
823,4554;0,0822149
824,4196;0,0820883
825,3839;0,0819734
826,3481;0,081846
827,3123;0,0816896
828,2766;0,0815071
829,2408;0,0813164
830,2050;0,0811353
831,1693;0,0809663
832,1335;0,0807943
833,0977;0,0805967
834,0620;0,0803581
835,0262;0,0800788
835,9904;0,0797714
836,9547;0,0794523
837,9189;0,0791332
838,8831;0,0788197
839,8474;0,0785151
840,8116;0,0782238
841,7758;0,0779516
842,7401;0,0777021
843,7043;0,0774744
844,6685;0,0772628
845,6328;0,077059
846,5970;0,0768553
847,5612;0,0766471
848,5255;0,0764339
849,4897;0,07622
850,4539;0,0760139
851,4182;0,0758265
852,3824;0,0756658
853,3466;0,0755327
854,3109;0,0754193
855,2751;0,0753117
856,2393;0,0751973
857,2036;0,0750716
858,1678;0,0749412
859,1320;0,0748215
860,0963;0,07473
861,0605;0,07468
862,0247;0,0746761
862,9890;0,0747144
863,9532;0,0747864
864,9174;0,0748849
865,8817;0,0750087
866,8459;0,0751638
867,8101;0,0753612
868,7744;0,0756105
869,7386;0,0759139
870,7028;0,0762637
871,6671;0,076644
872,6313;0,0770356
873,5955;0,0774217
874,5598;0,0777921
875,5240;0,0781449
876,4882;0,0784874
877,4525;0,0788359
878,4167;0,0792138
879,3809;0,0796479
880,3452;0,0801626
881,3094;0,0807741
882,2736;0,0814879
883,2379;0,0822997
884,2021;0,0831998
885,1663;0,0841768
886,1306;0,0852197
887,0948;0,0863176
888,0590;0,0874579
889,0233;0,088624
889,9875;0,0897932
890,9517;0,0909362
891,9160;0,0920164
892,8802;0,0929919
893,8444;0,0938204
894,8087;0,094465
895,7729;0,0949018
896,7371;0,0951224
897,7014;0,095133
898,6656;0,0949486
899,6298;0,094587
900,5941;0,0940655
901,5583;0,0934031
902,5225;0,092625
903,4868;0,0917663
904,4510;0,0908706
905,4152;0,0899831
906,3795;0,0891426
907,3437;0,088376
908,3079;0,0876976
909,2722;0,087113
910,2364;0,0866226
911,2007;0,0862231
912,1649;0,0859068
913,1292;0,0856626
914,0934;0,0854793
915,0576;0,085351
916,0219;0,0852803
916,9861;0,0852759
917,9503;0,0853457
918,9146;0,0854896
919,8788;0,0856966
920,8430;0,0859483
921,8073;0,0862261
922,7715;0,0865166
923,7357;0,0868135
924,7000;0,0871145
925,6642;0,0874189
926,6284;0,0877253
927,5927;0,0880327
928,5569;0,0883413
929,5211;0,088654
930,4854;0,0889761
931,4496;0,0893155
932,4138;0,089682
933,3781;0,0900862
934,3423;0,0905384
935,3065;0,0910467
936,2708;0,0916169
937,2350;0,0922538
938,1992;0,0929636
939,1635;0,0937549
940,1277;0,0946378
941,0919;0,095622
942,0562;0,0967138
943,0204;0,0979161
943,9846;0,0992285
944,9489;0,100647
945,9131;0,102165
946,8773;0,103768
947,8416;0,10544
948,8058;0,107161
949,7700;0,108918
950,7343;0,110707
951,6985;0,112538
952,6627;0,114434
953,6270;0,11642
954,5912;0,118515
955,5554;0,120723
956,5197;0,123033
957,4839;0,125418
958,4481;0,127844
959,4124;0,130285
960,3766;0,132724
961,3408;0,135159
962,3051;0,137594
963,2693;0,140036
964,2335;0,142488
965,1978;0,14495
966,1620;0,147421
967,1262;0,149908
968,0905;0,152427
969,0547;0,155006
970,0189;0,157685
970,9832;0,160514
971,9474;0,163545
972,9116;0,16683
973,8759;0,170403
974,8401;0,174281
975,8043;0,178455
976,7686;0,182895
977,7328;0,187548
978,6970;0,192333
979,6613;0,197136
980,6255;0,201809
981,5897;0,206191
982,5540;0,210137
983,5182;0,21356
984,4824;0,216452
985,4467;0,218891
986,4109;0,221004
987,3751;0,222928
988,3394;0,224767
989,3036;0,226575
990,2678;0,228362
991,2321;0,230109
992,1963;0,231792
993,1605;0,233392
994,1248;0,234894
995,0890;0,236288
996,0532;0,23756
997,0175;0,238698
997,9817;0,239698
998,9459;0,240576
999,9102;0,241374
1000,8744;0,242159
1001,8386;0,243011
1002,8029;0,244004
1003,7671;0,245195
1004,7313;0,24662
1005,6956;0,248292
1006,6598;0,250217
1007,6240;0,252402
1008,5883;0,254848
1009,5525;0,257546
1010,5167;0,260465
1011,4810;0,263547
1012,4452;0,26671
1013,4094;0,269865
1014,3737;0,272931
1015,3379;0,275846
1016,3021;0,27857
1017,2664;0,281075
1018,2306;0,28335
1019,1948;0,285392
1020,1591;0,287212
1021,1233;0,288842
1022,0875;0,290321
1023,0518;0,291696
1024,0160;0,293
1024,9802;0,294244
1025,9445;0,295415
1026,9087;0,296476
1027,8729;0,29737
1028,8372;0,298024
1029,8014;0,298345
1030,7656;0,298223
1031,7299;0,297543
1032,6941;0,296202
1033,6583;0,294154
1034,6226;0,291431
1035,5868;0,288171
1036,5510;0,284598
1037,5153;0,280992
1038,4795;0,277634
1039,4437;0,274751
1040,4080;0,272485
1041,3722;0,270878
1042,3364;0,269882
1043,3007;0,269388
1044,2649;0,269254
1045,2291;0,269336
1046,1934;0,269502
1047,1576;0,269646
1048,1218;0,269684
1049,0861;0,269552
1050,0503;0,26919
1051,0145;0,268541
1051,9788;0,267552
1052,9430;0,266189
1053,9072;0,264441
1054,8715;0,262318
1055,8357;0,259831
1056,7999;0,256965
1057,7642;0,25367
1058,7284;0,249879
1059,6926;0,245557
1060,6569;0,240745
1061,6211;0,235583
1062,5853;0,23029
1063,5496;0,225101
1064,5138;0,220209
1065,4780;0,215725
1066,4423;0,211674
1067,4065;0,208019
1068,3707;0,204698
1069,3350;0,201642
1070,2992;0,198789
1071,2634;0,196078
1072,2277;0,193449
1073,1919;0,19084
1074,1561;0,188197
1075,1204;0,185485
1076,0846;0,182702
1077,0488;0,179877
1078,0131;0,177077
1078,9773;0,174387
1079,9415;0,171901
1080,9058;0,169698
1081,8700;0,167827
1082,8342;0,166301
1083,7985;0,165095
1084,7627;0,164161
1085,7269;0,163438
1086,6912;0,162874
1087,6554;0,162427
1088,6196;0,162079
1089,5839;0,161827
1090,5481;0,161676
1091,5123;0,161639
1092,4766;0,161722
1093,4408;0,161923
1094,4050;0,162232
1095,3693;0,162631
1096,3335;0,163098
1097,2977;0,163608
1098,2620;0,164132
1099,2262;0,164637
1100,1904;0,165082
1101,1547;0,165424
1102,1189;0,165623
1103,0831;0,165655
1104,0474;0,165522
1105,0116;0,165248
1105,9758;0,164874
1106,9401;0,164435
1107,9043;0,163933
1108,8685;0,163326
1109,8328;0,162523
1110,7970;0,161412
1111,7612;0,159898
1112,7255;0,157946
1113,6897;0,155605
1114,6539;0,153008
1115,6182;0,150336
1116,5824;0,147769
1117,5466;0,145433
1118,5109;0,143376
1119,4751;0,141559
1120,4393;0,139879
1121,4036;0,1382
1122,3678;0,136393
1123,3320;0,134362
1124,2963;0,132065
1125,2605;0,129514
1126,2247;0,126762
1127,1890;0,123885
1128,1532;0,120956
1129,1174;0,118033
1130,0817;0,115147
1131,0459;0,112315
1132,0101;0,109549
1132,9744;0,106874
1133,9386;0,104334
1134,9028;0,101994
1135,8671;0,0999281
1136,8313;0,0982035
1137,7955;0,0968678
1138,7598;0,0959406
1139,7240;0,0954135
1140,6882;0,095255
1141,6525;0,0954174
1142,6167;0,0958427
1143,5809;0,0964688
1144,5452;0,0972364
1145,5094;0,0980963
1146,4736;0,0990176
1147,4379;0,0999902
1148,4021;0,10102
1149,3663;0,102119
1150,3306;0,103291
1151,2948;0,10452
1152,2590;0,105771
1153,2233;0,106995
1154,1875;0,108137
1155,1517;0,109142
1156,1160;0,10996
1157,0802;0,110535
1158,0444;0,110803
1159,0087;0,11068
1159,9729;0,110072
1160,9371;0,108889
1161,9014;0,107065
1162,8656;0,104583
1163,8298;0,101488
1164,7941;0,0978893
1165,7583;0,0939435
1166,7225;0,0898336
1167,6868;0,0857401
1168,6510;0,0818183
1169,6152;0,0781811
1170,5795;0,074894
1171,5437;0,0719782
1172,5079;0,0694212
1173,4722;0,0671909
1174,4364;0,065248
1175,4006;0,0635552
1176,3649;0,0620817
1177,3291;0,0608045
1178,2933;0,0597072
1179,2576;0,0587763
1180,2218;0,0579985
1181,1860;0,0573577
1182,1503;0,0568357
1183,1145;0,0564163
1184,0787;0,0560896
1185,0430;0,055855
1186,0072;0,0557199
1186,9714;0,0556946
1187,9357;0,0557865
1188,8999;0,0559972
1189,8641;0,0563231
1190,8284;0,056759
1191,7926;0,0572998
1192,7568;0,0579408
1193,7211;0,0586749
1194,6853;0,0594899
1195,6495;0,0603671
1196,6138;0,0612816
1197,5780;0,0622048
1198,5422;0,0631077
1199,5065;0,0639663
1200,4707;0,06476
1201,4349;0,0654823
1202,3992;0,0661328
1203,3634;0,0667133
1204,3276;0,0672216
1205,2919;0,0676493
1206,2561;0,0679872
1207,2203;0,0682355
1208,1846;0,068415
1209,1488;0,0685707
1210,1130;0,0687645
1211,0773;0,0690591
1212,0415;0,0694997
1213,0057;0,0701029
1213,9700;0,0708558
1214,9342;0,0717264
1215,8984;0,0726771
1216,8627;0,073675
1217,8269;0,0746962
1218,7911;0,0757247
1219,7554;0,0767485
1220,7196;0,0777574
1221,6838;0,0787411
1222,6481;0,0796906
1223,6123;0,080599
1224,5765;0,0814624
1225,5408;0,0822806
1226,5050;0,0830558
1227,4692;0,0837914
1228,4335;0,0844895
1229,3977;0,085149
1230,3619;0,0857641
1231,3262;0,0863238
1232,2904;0,0868136
1233,2546;0,0872195
1234,2189;0,0875329
1235,1831;0,0877558
1236,1473;0,0879022
1237,1116;0,0879951
1238,0758;0,0880583
1239,0400;0,0881075
1240,0043;0,088145
1240,9685;0,0881603
1241,9327;0,0881364
1242,8970;0,0880577
1243,8612;0,0879143
1244,8254;0,0877032
1245,7897;0,0874261
1246,7539;0,0870867
1247,7181;0,0866912
1248,6824;0,0862492
1249,6466;0,0857742
1250,6108;0,0852824
1251,5751;0,0847916
1252,5393;0,0843192
1253,5035;0,0838812
1254,4678;0,0834892
1255,4320;0,0831459
1256,3962;0,082842
1257,3605;0,0825551
1258,3247;0,0822566
1259,2889;0,081921
1260,2532;0,0815354
1261,2174;0,0811032
1262,1816;0,0806375
1263,1459;0,0801518
1264,1101;0,0796519
1265,0743;0,079135
1266,0386;0,0785936
1267,0028;0,0780217
1267,9670;0,0774185
1268,9313;0,076789
1269,8955;0,0761417
1270,8597;0,0754852
1271,8240;0,0748261
1272,7882;0,0741684
1273,7524;0,0735151
1274,7167;0,072871
1275,6809;0,0722429
1276,6451;0,0716384
1277,6094;0,0710601
1278,5736;0,0705013
1279,5378;0,0699463
1280,5021;0,0693762
1281,4663;0,0687799
1282,4305;0,0681612
1283,3948;0,0675391
1284,3590;0,0669413
1285,3232;0,0663947
1286,2875;0,0659193
1287,2517;0,065527
1288,2159;0,0652231
1289,1802;0,0650088
1290,1444;0,0648821
1291,1086;0,0648393
1292,0729;0,0648764
1293,0371;0,0649928
1294,0013;0,065192
1294,9656;0,0654806
1295,9298;0,065865
1296,8940;0,066347
1297,8583;0,0669238
1298,8225;0,0675886
1299,7867;0,0683337
1300,7510;0,0691521
1301,7152;0,0700382
1302,6794;0,0709884
1303,6437;0,0720002
1304,6079;0,0730713
1305,5721;0,0741968
1306,5364;0,0753677
1307,5006;0,0765706
1308,4648;0,0777902
1309,4291;0,0790098
1310,3933;0,0802099
1311,3575;0,0813626
1312,3218;0,0824291
1313,2860;0,0833627
1314,2502;0,0841164
1315,2145;0,0846499
1316,1787;0,0849336
1317,1429;0,0849528
1318,1072;0,0847152
1319,0714;0,0842596
1320,0356;0,0836551
1320,9999;0,0829834
1321,9641;0,0823174
1322,9283;0,0817073
1323,8926;0,0811818
1324,8568;0,0807557
1325,8210;0,0804362
1326,7853;0,0802234
1327,7495;0,0801061
1328,7137;0,0800591
1329,6780;0,0800442
1330,6422;0,0800176
1331,6064;0,0799419
1332,5707;0,0797979
1333,5349;0,0795865
1334,4991;0,0793183
1335,4634;0,0789945
1336,4276;0,0785908
1337,3918;0,0780568
1338,3561;0,0773429
1339,3203;0,076446
1340,2845;0,0754346
1341,2488;0,0744186
1342,2130;0,0734915
1343,1772;0,0727002
1344,1415;0,0720527
1345,1057;0,0715404
1346,0699;0,0711546
1347,0342;0,0708945
1347,9984;0,0707666
1348,9626;0,0707783
1349,9269;0,0709293
1350,8911;0,0712052
1351,8553;0,0715768
1352,8196;0,0720073
1353,7838;0,072465
1354,7480;0,072935
1355,7123;0,073425
1356,6765;0,0739577
1357,6407;0,0745556
1358,6050;0,075225
1359,5692;0,0759447
1360,5334;0,0766608
1361,4977;0,0772984
1362,4619;0,0778
1363,4261;0,0781688
