TITLE;
DATA TYPE;INFRARED SPECTRUM
ORIGIN;JASCO
OWNER;
DATE;25/03/14
TIME;09:27:11
SPECTROMETER/DATA SYSTEM;
LOCALE;9226
RESOLUTION;
DELTAX;0,964233
XUNITS;1/CM
YUNITS;ABSORBANCE
FIRSTX;  399,1927
LASTX; 4000,6047
NPOINTS;    3736
FIRSTY;     0,21694
MAXY;     0,26225
MINY;     0,01113
XYDATA
399,1927;0,216935
400,1569;0,215736
401,1211;0,215474
402,0854;0,2155
403,0496;0,215344
404,0138;0,214873
404,9781;0,214258
405,9423;0,213806
406,9065;0,213729
407,8708;0,213977
408,8350;0,214294
409,7992;0,214441
410,7635;0,214408
411,7277;0,214433
412,6919;0,214814
413,6562;0,215679
414,6204;0,216907
415,5846;0,218198
416,5489;0,219177
417,5131;0,219511
418,4773;0,219177
419,4416;0,218666
420,4058;0,218622
421,3700;0,219238
422,3343;0,220245
423,2985;0,221245
424,2627;0,2219
425,2270;0,222031
426,1912;0,221676
427,1554;0,221091
428,1197;0,22062
429,0839;0,220547
430,0481;0,220974
431,0124;0,221791
431,9766;0,222722
432,9408;0,223442
433,9051;0,22371
434,8693;0,223468
435,8335;0,222843
436,7978;0,222059
437,7620;0,22131
438,7262;0,220691
439,6905;0,220216
440,6547;0,219892
441,6189;0,219772
442,5832;0,219938
443,5474;0,220408
444,5116;0,221053
445,4759;0,221612
446,4401;0,221808
447,4043;0,221477
448,3686;0,220619
449,3328;0,219388
450,2970;0,218027
451,2613;0,216778
452,2255;0,215795
453,1897;0,215111
454,1540;0,214668
455,1182;0,214389
456,0824;0,21424
457,0467;0,214236
458,0109;0,214384
458,9751;0,214602
459,9394;0,214716
460,9036;0,214555
461,8678;0,214052
462,8321;0,213282
463,7963;0,212452
464,7605;0,211817
465,7248;0,211566
466,6890;0,211714
467,6532;0,212103
468,6175;0,212508
469,5817;0,212764
470,5459;0,212846
471,5102;0,212854
472,4744;0,212931
473,4386;0,213149
474,4029;0,21346
475,3671;0,213743
476,3313;0,213884
477,2956;0,213834
478,2598;0,213604
479,2240;0,213264
480,1883;0,212913
481,1525;0,212663
482,1167;0,21261
483,0810;0,212812
484,0452;0,213268
485,0094;0,213901
485,9737;0,214589
486,9379;0,215199
487,9021;0,215632
488,8664;0,215834
489,8306;0,2158
490,7948;0,215571
491,7591;0,215226
492,7233;0,214869
493,6875;0,214608
494,6518;0,214535
495,6160;0,214716
496,5802;0,215173
497,5445;0,215866
498,5087;0,216675
499,4729;0,217407
500,4372;0,21785
501,4014;0,217884
502,3656;0,21757
503,3299;0,217142
504,2941;0,216885
505,2583;0,216969
506,2226;0,217382
507,1868;0,21796
508,1510;0,218499
509,1153;0,218869
510,0795;0,219076
511,0437;0,21923
512,0080;0,21948
512,9722;0,219936
513,9365;0,220642
514,9007;0,221561
515,8649;0,222568
516,8292;0,223457
517,7934;0,224006
518,7576;0,224086
519,7219;0,223752
520,6861;0,22322
521,6503;0,222745
522,6146;0,222504
523,5788;0,222536
524,5430;0,222736
525,5073;0,222918
526,4715;0,222921
527,4357;0,222707
528,4000;0,22236
529,3642;0,222007
530,3284;0,221721
531,2927;0,221492
532,2569;0,22125
533,2211;0,220915
534,1854;0,220454
535,1496;0,219897
536,1138;0,219318
537,0781;0,218805
538,0423;0,21844
539,0065;0,218283
539,9708;0,218368
540,9350;0,218683
541,8992;0,219164
542,8635;0,219704
543,8277;0,220186
544,7919;0,220537
545,7562;0,220762
546,7204;0,220929
547,6846;0,221123
548,6489;0,221392
549,6131;0,221726
550,5773;0,222086
551,5416;0,222455
552,5058;0,222857
553,4700;0,223334
554,4343;0,223896
555,3985;0,22448
556,3627;0,224948
557,3270;0,225134
558,2912;0,224907
559,2554;0,224215
560,2197;0,223101
561,1839;0,221679
562,1481;0,220109
563,1124;0,218548
564,0766;0,217125
565,0408;0,215919
566,0051;0,214951
566,9693;0,214202
567,9335;0,213629
568,8978;0,213178
569,8620;0,212797
570,8262;0,212438
571,7905;0,212067
572,7547;0,211671
573,7189;0,211265
574,6832;0,210889
575,6474;0,210589
576,6116;0,210393
577,5759;0,210299
578,5401;0,210275
579,5043;0,210275
580,4686;0,210261
581,4328;0,210205
582,3970;0,210088
583,3613;0,209906
584,3255;0,209669
585,2897;0,209412
586,2540;0,209186
587,2182;0,209043
588,1824;0,209007
589,1467;0,209059
590,1109;0,209133
591,0751;0,209143
592,0394;0,209016
593,0036;0,208727
593,9678;0,208305
594,9321;0,207808
595,8963;0,207293
596,8605;0,206788
597,8248;0,206291
598,7890;0,205783
599,7532;0,205241
600,7175;0,204662
601,6817;0,204058
602,6459;0,203462
603,6102;0,202906
604,5744;0,202412
605,5386;0,201978
606,5029;0,20157
607,4671;0,201133
608,4313;0,200603
609,3956;0,199946
610,3598;0,199176
611,3240;0,198368
612,2883;0,197629
613,2525;0,197045
614,2167;0,19663
615,1810;0,196291
616,1452;0,195857
617,1094;0,195143
618,0737;0,194055
619,0379;0,192645
620,0021;0,191077
620,9664;0,189537
621,9306;0,188156
622,8948;0,186977
623,8591;0,185976
624,8233;0,185076
625,7875;0,184263
626,7518;0,183517
627,7160;0,182843
628,6802;0,182243
629,6445;0,181706
630,6087;0,181198
631,5729;0,180674
632,5372;0,180102
633,5014;0,179482
634,4656;0,178852
635,4299;0,178271
636,3941;0,177794
637,3583;0,177436
638,3226;0,177167
639,2868;0,176919
640,2510;0,17662
641,2153;0,176229
642,1795;0,175762
643,1437;0,175282
644,1080;0,174869
645,0722;0,174576
646,0364;0,1744
647,0007;0,17428
647,9649;0,174128
648,9291;0,173886
649,8934;0,173563
650,8576;0,173242
651,8218;0,173035
652,7861;0,173022
653,7503;0,173206
654,7145;0,173516
655,6788;0,173843
656,6430;0,174097
657,6072;0,174254
658,5715;0,174337
659,5357;0,174367
660,4999;0,174318
661,4642;0,174112
662,4284;0,173675
663,3926;0,17298
664,3569;0,172086
665,3211;0,171171
666,2853;0,17053
667,2496;0,170367
668,2138;0,170367
669,1780;0,169838
670,1423;0,168632
671,1065;0,167088
672,0707;0,165404
673,0350;0,163617
673,9992;0,161782
674,9634;0,160005
675,9277;0,158377
676,8919;0,156905
677,8561;0,15552
678,8204;0,15415
679,7846;0,152784
680,7488;0,151473
681,7131;0,150286
682,6773;0,149253
683,6415;0,148358
684,6058;0,147565
685,5700;0,146852
686,5342;0,146214
687,4985;0,145657
688,4627;0,145177
689,4269;0,144751
690,3912;0,144348
691,3554;0,143943
692,3196;0,143517
693,2839;0,143065
694,2481;0,142592
695,2123;0,142111
696,1766;0,141636
697,1408;0,141173
698,1050;0,140709
699,0693;0,140222
700,0335;0,139695
700,9977;0,139129
701,9620;0,138544
702,9262;0,137963
703,8904;0,137394
704,8547;0,136829
705,8189;0,136244
706,7831;0,13562
707,7474;0,134955
708,7116;0,134268
709,6758;0,133584
710,6401;0,132909
711,6043;0,13223
712,5685;0,131524
713,5328;0,130785
714,4970;0,130042
715,4612;0,128969
716,4255;0,128447
717,3897;0,128038
718,3539;0,127642
719,3182;0,1271
720,2824;0,12628
721,2466;0,125157
722,2109;0,123828
723,1751;0,122457
724,1393;0,121187
725,1036;0,120083
726,0678;0,11913
727,0320;0,11827
727,9963;0,11744
728,9605;0,116604
729,9247;0,115759
730,8890;0,114924
731,8532;0,114124
732,8174;0,113376
733,7817;0,112693
734,7459;0,112077
735,7101;0,111522
736,6744;0,11102
737,6386;0,110553
738,6028;0,110105
739,5671;0,109656
740,5313;0,109194
741,4955;0,108712
742,4598;0,108214
743,4240;0,107708
744,3882;0,107204
745,3525;0,106707
746,3167;0,10621
747,2809;0,105702
748,2452;0,10517
749,2094;0,104615
750,1736;0,104051
751,1379;0,103502
752,1021;0,102989
753,0663;0,10252
754,0306;0,102084
754,9948;0,101658
755,9590;0,101218
756,9233;0,100752
757,8875;0,100259
758,8517;0,0997522
759,8160;0,0992475
760,7802;0,0987619
761,7444;0,0983072
762,7087;0,097889
763,6729;0,097506
764,6371;0,0971516
765,6014;0,0968151
766,5656;0,0964846
767,5298;0,0961492
768,4941;0,0958022
769,4583;0,0954444
770,4225;0,0950857
771,3868;0,0947425
772,3510;0,0944304
773,3152;0,094155
774,2795;0,0939059
775,2437;0,0936608
776,2079;0,0933963
777,1722;0,0931012
778,1364;0,0927806
779,1006;0,0924492
780,0649;0,0921177
781,0291;0,0917846
781,9933;0,0914389
782,9576;0,0910718
783,9218;0,0906873
784,8860;0,0903022
785,8503;0,0899351
786,8145;0,0895941
787,7787;0,0892725
788,7430;0,0889566
789,7072;0,0886388
790,6714;0,0883252
791,6357;0,0880313
792,5999;0,0877705
793,5641;0,0875423
794,5284;0,087332
795,4926;0,0871191
796,4568;0,0868908
797,4211;0,0866493
798,3853;0,0864101
799,3495;0,0861925
800,3138;0,0860096
801,2780;0,0858622
802,2422;0,08574
803,2065;0,0856257
804,1707;0,0855007
805,1349;0,0853509
806,0992;0,0851721
807,0634;0,0849742
808,0276;0,0847795
808,9919;0,0846159
809,9561;0,0845033
810,9203;0,0844416
811,8846;0,0844081
812,8488;0,0843674
813,8130;0,0842899
814,7773;0,0841673
815,7415;0,0840159
816,7057;0,0838644
817,6700;0,0837353
818,6342;0,0836322
819,5984;0,0835407
820,5627;0,0834424
821,5269;0,0833299
822,4911;0,0832133
823,4554;0,0831121
824,4196;0,0830405
825,3839;0,0829962
826,3481;0,0829607
827,3123;0,0829098
828,2766;0,0828271
829,2408;0,0827092
830,2050;0,0825627
831,1693;0,0823948
832,1335;0,0822068
833,0977;0,0819939
834,0620;0,0817517
835,0262;0,0814811
835,9904;0,0811894
836,9547;0,0808867
837,9189;0,0805815
838,8831;0,0802797
839,8474;0,0799863
840,8116;0,0797077
841,7758;0,0794511
842,7401;0,0792205
843,7043;0,079014
844,6685;0,0788238
845,6328;0,0786397
846,5970;0,0784541
847,5612;0,0782638
848,5255;0,0780713
849,4897;0,0778822
850,4539;0,0777044
851,4182;0,077546
852,3824;0,0774118
853,3466;0,0773
854,3109;0,077201
855,2751;0,0771004
856,2393;0,0769856
857,2036;0,0768533
858,1678;0,0767111
859,1320;0,0765737
860,0963;0,0764542
861,0605;0,0763585
862,0247;0,0762855
862,9890;0,0762327
863,9532;0,0762033
864,9174;0,0762089
865,8817;0,076267
866,8459;0,0763943
867,8101;0,0766002
868,7744;0,0768807
869,7386;0,0772181
870,7028;0,0775827
871,6671;0,0779408
872,6313;0,0782635
873,5955;0,0785377
874,5598;0,0787701
875,5240;0,0789844
876,4882;0,079211
877,4525;0,0794748
878,4167;0,079789
879,3809;0,0801569
880,3452;0,0805802
881,3094;0,0810664
882,2736;0,0816286
883,2379;0,0822791
884,2021;0,0830196
885,1663;0,0838382
886,1306;0,0847143
887,0948;0,0856294
888,0590;0,0865731
889,0233;0,087542
889,9875;0,0885281
890,9517;0,0895091
891,9160;0,0904452
892,8802;0,0912885
893,8444;0,0919978
894,8087;0,0925501
895,7729;0,0929411
896,7371;0,0931757
897,7014;0,0932555
898,6656;0,0931726
899,6298;0,0929144
900,5941;0,092474
901,5583;0,0918629
902,5225;0,0911144
903,4868;0,0902796
904,4510;0,0894176
905,4152;0,0885848
906,3795;0,0878272
907,3437;0,0871765
908,3079;0,0866489
909,2722;0,0862441
910,2364;0,0859477
911,2007;0,0857349
912,1649;0,0855779
913,1292;0,0854556
914,0934;0,0853601
915,0576;0,0852988
916,0219;0,0852897
916,9861;0,0853515
917,9503;0,0854944
918,9146;0,0857141
919,8788;0,0859927
920,8430;0,0863042
921,8073;0,0866223
922,7715;0,0869273
923,7357;0,0872097
924,7000;0,0874708
925,6642;0,0877199
926,6284;0,0879702
927,5927;0,0882329
928,5569;0,0885139
929,5211;0,0888123
930,4854;0,0891232
931,4496;0,0894428
932,4138;0,089773
933,3781;0,0901236
934,3423;0,0905105
935,3065;0,0909507
936,2708;0,0914571
937,2350;0,0920355
938,1992;0,092686
939,1635;0,0934057
940,1277;0,0941935
941,0919;0,0950519
942,0562;0,0959859
943,0204;0,0970012
943,9846;0,098102
944,9489;0,0992918
945,9131;0,100574
946,8773;0,101953
947,8416;0,103428
948,8058;0,104991
949,7700;0,106626
950,7343;0,108309
951,6985;0,110025
952,6627;0,111772
953,6270;0,113568
954,5912;0,115438
955,5554;0,117398
956,5197;0,119444
957,4839;0,121548
958,4481;0,123669
959,4124;0,125775
960,3766;0,127853
961,3408;0,129909
962,3051;0,131959
963,2693;0,134013
964,2335;0,136074
965,1978;0,138136
966,1620;0,140198
967,1262;0,142268
968,0905;0,144362
969,0547;0,146504
970,0189;0,14872
970,9832;0,151041
971,9474;0,153503
972,9116;0,156147
973,8759;0,159014
974,8401;0,162132
975,8043;0,165508
976,7686;0,169119
977,7328;0,172915
978,6970;0,176824
979,6613;0,180755
980,6255;0,184602
981,5897;0,188254
982,5540;0,191607
983,5182;0,194588
984,4824;0,197168
985,4467;0,199376
986,4109;0,201282
987,3751;0,202972
988,3394;0,204524
989,3036;0,205983
990,2678;0,207364
991,2321;0,208656
992,1963;0,209846
993,1605;0,21093
994,1248;0,211916
995,0890;0,212825
996,0532;0,213679
997,0175;0,214497
997,9817;0,21529
998,9459;0,216072
999,9102;0,216861
1000,8744;0,217681
1001,8386;0,218568
1002,8029;0,219556
1003,7671;0,220675
1004,7313;0,221949
1005,6956;0,223392
1006,6598;0,225017
1007,6240;0,226833
1008,5883;0,228846
1009,5525;0,231051
1010,5167;0,233429
1011,4810;0,23594
1012,4452;0,238522
1013,4094;0,2411
1014,3737;0,243594
1015,3379;0,245935
1016,3021;0,248072
1017,2664;0,249985
1018,2306;0,251676
1019,1948;0,253163
1020,1591;0,254473
1021,1233;0,255637
1022,0875;0,256685
1023,0518;0,257647
1024,0160;0,25855
1024,9802;0,259406
1025,9445;0,260214
1026,9087;0,260953
1027,8729;0,26158
1028,8372;0,262037
1029,8014;0,262246
1030,7656;0,262122
1031,7299;0,261577
1032,6941;0,260545
1033,6583;0,259008
1034,6226;0,257013
1035,5868;0,254677
1036,5510;0,252165
1037,5153;0,249665
1038,4795;0,24735
1039,4437;0,245346
1040,4080;0,243728
1041,3722;0,242511
1042,3364;0,24166
1043,3007;0,241104
1044,2649;0,240752
1045,2291;0,240507
1046,1934;0,240281
1047,1576;0,240001
1048,1218;0,239607
1049,0861;0,239054
1050,0503;0,238303
1051,0145;0,237322
1051,9788;0,236094
1052,9430;0,234619
1053,9072;0,232915
1054,8715;0,231005
1055,8357;0,228895
1056,7999;0,226559
1057,7642;0,223942
1058,7284;0,22098
1059,6926;0,217641
1060,6569;0,21396
1061,6211;0,210044
1062,5853;0,206054
1063,5496;0,202158
1064,5138;0,198493
1065,4780;0,195134
1066,4423;0,192096
1067,4065;0,18935
1068,3707;0,186845
1069,3350;0,184527
1070,2992;0,182347
1071,2634;0,180257
1072,2277;0,178213
1073,1919;0,176172
1074,1561;0,174096
1075,1204;0,171962
1076,0846;0,169771
1077,0488;0,167548
1078,0131;0,165345
1078,9773;0,163229
1079,9415;0,161268
1080,9058;0,159516
1081,8700;0,158004
1082,8342;0,156735
1083,7985;0,155689
1084,7627;0,154829
1085,7269;0,154116
1086,6912;0,153517
1087,6554;0,153009
1088,6196;0,152582
1089,5839;0,152238
1090,5481;0,151981
1091,5123;0,151816
1092,4766;0,151744
1093,4408;0,151761
1094,4050;0,151861
1095,3693;0,152037
1096,3335;0,152278
1097,2977;0,152568
1098,2620;0,152887
1099,2262;0,153204
1100,1904;0,153489
1101,1547;0,15371
1102,1189;0,153841
1103,0831;0,153867
1104,0474;0,153781
1105,0116;0,153588
1105,9758;0,153301
1106,9401;0,152936
1107,9043;0,152498
1108,8685;0,151975
1109,8328;0,151329
1110,7970;0,150503
1111,7612;0,149439
1112,7255;0,148108
1113,6897;0,146532
1114,6539;0,144787
1115,6182;0,142986
1116,5824;0,141243
1117,5466;0,139637
1118,5109;0,138188
1119,4751;0,136858
1120,4393;0,135569
1121,4036;0,134225
1122,3678;0,132741
1123,3320;0,131059
1124,2963;0,129152
1125,2605;0,127024
1126,2247;0,124701
1127,1890;0,122226
1128,1532;0,119644
1129,1174;0,117
1130,0817;0,114331
1131,0459;0,111672
1132,0101;0,10906
1132,9744;0,106537
1133,9386;0,104157
1134,9028;0,101979
1135,8671;0,100062
1136,8313;0,0984541
1137,7955;0,0971849
1138,7598;0,0962632
1139,7240;0,0956768
1140,6882;0,0953963
1141,6525;0,09538
1142,6167;0,0955792
1143,5809;0,095945
1144,5452;0,0964351
1145,5094;0,0970194
1146,4736;0,0976815
1147,4379;0,0984161
1148,4021;0,099222
1149,3663;0,100094
1150,3306;0,101017
1151,2948;0,101964
1152,2590;0,1029
1153,2233;0,103786
1154,1875;0,10458
1155,1517;0,105239
1156,1160;0,105718
1157,0802;0,105961
1158,0444;0,105909
1159,0087;0,105496
1159,9729;0,104658
1160,9371;0,103348
1161,9014;0,101543
1162,8656;0,0992554
1163,8298;0,0965373
1164,7941;0,0934772
1165,7583;0,0901922
1166,7225;0,0868147
1167,6868;0,0834764
1168,6510;0,0802927
1169,6152;0,0773485
1170,5795;0,0746914
1171,5437;0,0723333
1172,5079;0,0702588
1173,4722;0,0684387
1174,4364;0,0668419
1175,4006;0,0654435
1176,3649;0,0642264
1177,3291;0,0631803
1178,2933;0,0622976
1179,2576;0,0615699
1180,2218;0,0609849
1181,1860;0,0605247
1182,1503;0,0601675
1183,1145;0,0598921
1184,0787;0,0596836
1185,0430;0,059538
1186,0072;0,059463
1186,9714;0,0594729
1187,9357;0,0595812
1188,8999;0,0597949
1189,8641;0,0601123
1190,8284;0,060526
1191,7926;0,0610277
1192,7568;0,0616111
1193,7211;0,0622721
1194,6853;0,0630051
1195,6495;0,0638
1196,6138;0,0646409
1197,5780;0,0655078
1198,5422;0,0663796
1199,5065;0,0671958
1200,4707;0,0680314
1201,4349;0,06883
1202,3992;0,0695853
1203,3634;0,070294
1204,3276;0,0709551
1205,2919;0,0715706
1206,2561;0,0721466
1207,2203;0,0726953
1208,1846;0,0732367
1209,1488;0,0737987
1210,1130;0,0744139
1211,0773;0,0751136
1212,0415;0,0759194
1213,0057;0,076837
1213,9700;0,0778542
1214,9342;0,0789453
1215,8984;0,0800783
1216,8627;0,0812227
1217,8269;0,0823552
1218,7911;0,0834618
1219,7554;0,0845351
1220,7196;0,0855708
1221,6838;0,0865632
1222,6481;0,0875036
1223,6123;0,0883812
1224,5765;0,0891868
1225,5408;0,0899167
1226,5050;0,0905749
1227,4692;0,0911715
1228,4335;0,0917185
1229,3977;0,0922245
1230,3619;0,0926908
1231,3262;0,0931113
1232,2904;0,0934749
1233,2546;0,0937702
1234,2189;0,0939902
1235,1831;0,094136
1236,1473;0,0942175
1237,1116;0,0942506
1238,0758;0,0942517
1239,0400;0,0942323
1240,0043;0,0941937
1240,9685;0,0941275
1241,9327;0,0940192
1242,8970;0,0938538
1243,8612;0,0936217
1244,8254;0,0933209
1245,7897;0,0929564
1246,7539;0,0925377
1247,7181;0,0920759
1248,6824;0,0915824
1249,6466;0,0910686
1250,6108;0,0905465
1251,5751;0,090028
1252,5393;0,0895249
1253,5035;0,0890466
1254,4678;0,0885972
1255,4320;0,0881741
1256,3962;0,0877671
1257,3605;0,0873613
1258,3247;0,0869415
1259,2889;0,0864963
1260,2532;0,0860208
1261,2174;0,0855156
1262,1816;0,0849833
1263,1459;0,0844256
1264,1101;0,0838411
1265,0743;0,0832265
1266,0386;0,0825782
1267,0028;0,0818931
1267,9670;0,0811708
1268,9313;0,0804134
1269,8955;0,0796263
1270,8597;0,0788172
1271,8240;0,0779944
1272,7882;0,077166
1273,7524;0,0763403
1274,7167;0,0755267
1275,6809;0,0747369
1276,6451;0,0739821
1277,6094;0,073268
1278,5736;0,0725899
1279,5378;0,0719329
1280,5021;0,0712799
1281,4663;0,0706212
1282,4305;0,0699618
1283,3948;0,06932
1284,3590;0,0687189
1285,3232;0,068177
1286,2875;0,0677026
1287,2517;0,067296
1288,2159;0,066955
1289,1802;0,0666812
1290,1444;0,0664808
1291,1086;0,0663632
1292,0729;0,0663359
1293,0371;0,0664024
1294,0013;0,066561
1294,9656;0,0668061
1295,9298;0,0671304
1296,8940;0,0675269
1297,8583;0,067991
1298,8225;0,0685204
1299,7867;0,0691139
1300,7510;0,069769
1301,7152;0,0704821
1302,6794;0,0712489
1303,6437;0,0720662
1304,6079;0,0729318
1305,5721;0,0738427
1306,5364;0,0747935
1307,5006;0,0757761
1308,4648;0,076781
1309,4291;0,0777979
1310,3933;0,0788127
1311,3575;0,0798021
1312,3218;0,0807316
1313,2860;0,0815593
1314,2502;0,0822453
1315,2145;0,0827587
1316,1787;0,0830798
1317,1429;0,0831995
1318,1072;0,0831224
1319,0714;0,0828731
1320,0356;0,0824983
1320,9999;0,0820573
1321,9641;0,0816059
1322,9283;0,0811842
1323,8926;0,0808135
1324,8568;0,0805014
1325,8210;0,0802477
1326,7853;0,0800474
1327,7495;0,0798905
1328,7137;0,0797588
1329,6780;0,0796256
1330,6422;0,0794613
1331,6064;0,0792438
1332,5707;0,0789687
1333,5349;0,078651
1334,4991;0,078313
1335,4634;0,0779638
1336,4276;0,0775824
1337,3918;0,077116
1338,3561;0,0765048
1339,3203;0,0757308
1340,2845;0,0748496
1341,2488;0,0739651
1342,2130;0,0731699
1343,1772;0,0725093
1344,1415;0,0719869
1345,1057;0,0715875
1346,0699;0,0712963
1347,0342;0,0711085
1347,9984;0,0710295
1348,9626;0,071067
1349,9269;0,0712212
1350,8911;0,0714782
1351,8553;0,0718123
1352,8196;0,072195
1353,7838;0,0726053
1354,7480;0,0730376
1355,7123;0,0735009
1356,6765;0,0740122
1357,6407;0,0745877
1358,6050;0,0752348
1359,5692;0,0759445
1360,5334;0,0766803
1361,4977;0,0773748
1362,4619;0,0779561
