TITLE;
DATA TYPE;INFRARED SPECTRUM
ORIGIN;JASCO
OWNER;
DATE;25/03/14
TIME;08:50:24
SPECTROMETER/DATA SYSTEM;
LOCALE;9226
RESOLUTION;
DELTAX;0,964233
XUNITS;1/CM
YUNITS;ABSORBANCE
FIRSTX;  399,1927
LASTX; 4000,6047
NPOINTS;    3736
FIRSTY;     0,19494
MAXY;     0,23759
MINY;     0,01006
XYDATA
399,1927;0,194941
400,1569;0,193031
401,1211;0,192242
402,0854;0,192468
403,0496;0,193297
404,0138;0,19428
404,9781;0,195059
405,9423;0,195432
406,9065;0,195374
407,8708;0,194986
408,8350;0,194433
409,7992;0,193911
410,7635;0,193661
411,7277;0,193931
412,6919;0,194862
413,6562;0,196375
414,6204;0,198164
415,5846;0,199757
416,5489;0,20059
417,5131;0,200229
418,4773;0,198883
419,4416;0,197676
420,4058;0,197748
421,3700;0,199175
422,3343;0,201207
423,2985;0,202996
424,2627;0,203966
425,2270;0,203939
426,1912;0,203144
427,1554;0,202058
428,1197;0,201133
429,0839;0,200583
430,0481;0,200363
431,0124;0,200269
431,9766;0,200079
432,9408;0,199665
433,9051;0,199028
434,8693;0,19828
435,8335;0,197571
436,7978;0,197009
437,7620;0,196604
438,7262;0,196264
439,6905;0,195857
440,6547;0,195283
441,6189;0,194547
442,5832;0,193775
443,5474;0,193163
444,5116;0,192856
445,4759;0,192846
446,4401;0,192973
447,4043;0,193019
448,3686;0,192807
449,3328;0,192278
450,2970;0,191508
451,2613;0,190673
452,2255;0,189952
453,1897;0,189441
454,1540;0,189117
455,1182;0,188868
456,0824;0,188569
457,0467;0,188143
458,0109;0,187605
458,9751;0,187029
459,9394;0,186475
460,9036;0,185958
461,8678;0,185473
462,8321;0,185043
463,7963;0,18473
464,7605;0,184601
465,7248;0,184679
466,6890;0,184907
467,6532;0,185158
468,6175;0,185295
469,5817;0,185212
470,5459;0,184867
471,5102;0,1843
472,4744;0,183623
473,4386;0,182981
474,4029;0,182491
475,3671;0,182207
476,3313;0,182139
477,2956;0,182279
478,2598;0,182616
479,2240;0,183123
480,1883;0,183736
481,1525;0,184368
482,1167;0,184933
483,0810;0,185385
484,0452;0,185749
485,0094;0,186104
485,9737;0,186533
486,9379;0,187069
487,9021;0,187683
488,8664;0,188298
489,8306;0,188828
490,7948;0,189208
491,7591;0,189421
492,7233;0,189509
493,6875;0,189568
494,6518;0,189723
495,6160;0,190078
496,5802;0,190681
497,5445;0,191502
498,5087;0,192431
499,4729;0,193305
500,4372;0,193965
501,4014;0,194318
502,3656;0,194389
503,3299;0,194312
504,2941;0,194262
505,2583;0,194372
506,2226;0,194696
507,1868;0,195213
508,1510;0,195856
509,1153;0,196542
510,0795;0,197202
511,0437;0,197789
512,0080;0,198291
512,9722;0,198722
513,9365;0,199118
514,9007;0,199521
515,8649;0,199951
516,8292;0,200388
517,7934;0,200757
518,7576;0,200967
519,7219;0,200973
520,6861;0,20081
521,6503;0,200585
522,6146;0,200422
523,5788;0,200409
524,5430;0,200554
525,5073;0,200768
526,4715;0,200899
527,4357;0,200825
528,4000;0,200524
529,3642;0,200077
530,3284;0,199613
531,2927;0,199239
532,2569;0,199
533,2211;0,198868
534,1854;0,198776
535,1496;0,198664
536,1138;0,198517
537,0781;0,19837
538,0423;0,198283
539,0065;0,198309
539,9708;0,198468
540,9350;0,198742
541,8992;0,199085
542,8635;0,199445
543,8277;0,199776
544,7919;0,200044
545,7562;0,20023
546,7204;0,200332
547,6846;0,200369
548,6489;0,20038
549,6131;0,200426
550,5773;0,200577
551,5416;0,200894
552,5058;0,201407
553,4700;0,202087
554,4343;0,202843
555,3985;0,203537
556,3627;0,204012
557,3270;0,204141
558,2912;0,203859
559,2554;0,203183
560,2197;0,202204
561,1839;0,201067
562,1481;0,19993
563,1124;0,198916
564,0766;0,198081
565,0408;0,197417
566,0051;0,196869
566,9693;0,196388
567,9335;0,195954
568,8978;0,195587
569,8620;0,195312
570,8262;0,195133
571,7905;0,195018
572,7547;0,194918
573,7189;0,194795
574,6832;0,194642
575,6474;0,194477
576,6116;0,194323
577,5759;0,194192
578,5401;0,194081
579,5043;0,193981
580,4686;0,193895
581,4328;0,193829
582,3970;0,193779
583,3613;0,193725
584,3255;0,193633
585,2897;0,193483
586,2540;0,193287
587,2182;0,193091
588,1824;0,192947
589,1467;0,192883
590,1109;0,192878
591,0751;0,192868
592,0394;0,192779
593,0036;0,192562
593,9678;0,192219
594,9321;0,191792
595,8963;0,191328
596,8605;0,190859
597,8248;0,190385
598,7890;0,189886
599,7532;0,189348
600,7175;0,188775
601,6817;0,188201
602,6459;0,187672
603,6102;0,187227
604,5744;0,186872
605,5386;0,186574
606,5029;0,186267
607,4671;0,185878
608,4313;0,185355
609,3956;0,184697
610,3598;0,183956
611,3240;0,183228
612,2883;0,182614
613,2525;0,182169
614,2167;0,181871
615,1810;0,181606
616,1452;0,1812
617,1094;0,18049
618,0737;0,179408
619,0379;0,178022
620,0021;0,176502
620,9664;0,175033
621,9306;0,173746
622,8948;0,172684
623,8591;0,171818
624,8233;0,171067
625,7875;0,170399
626,7518;0,169782
627,7160;0,169214
628,6802;0,168701
629,6445;0,16824
630,6087;0,167801
631,5729;0,167351
632,5372;0,166866
633,5014;0,166355
634,4656;0,165857
635,4299;0,165421
636,3941;0,165079
637,3583;0,164827
638,3226;0,164627
639,2868;0,164424
640,2510;0,164176
641,2153;0,163865
642,1795;0,16351
643,1437;0,163149
644,1080;0,162826
645,0722;0,162564
646,0364;0,162358
647,0007;0,162178
647,9649;0,161992
648,9291;0,161797
649,8934;0,16163
650,8576;0,161558
651,8218;0,161637
652,7861;0,161879
653,7503;0,16224
654,7145;0,162638
655,6788;0,162992
656,6430;0,163267
657,6072;0,163476
658,5715;0,163652
659,5357;0,163792
660,4999;0,16384
661,4642;0,163718
662,4284;0,163381
663,3926;0,162847
664,3569;0,162202
665,3211;0,161607
666,2853;0,16128
667,2496;0,16128
668,2138;0,161181
669,1780;0,160386
670,1423;0,158971
671,1065;0,157376
672,0707;0,155766
673,0350;0,154096
673,9992;0,152343
674,9634;0,150563
675,9277;0,148855
676,8919;0,147288
677,8561;0,145864
678,8204;0,144547
679,7846;0,143308
680,7488;0,142151
681,7131;0,141095
682,6773;0,14015
683,6415;0,1393
684,6058;0,138525
685,5700;0,137817
686,5342;0,137188
687,4985;0,136653
688,4627;0,136217
689,4269;0,135861
690,3912;0,135546
691,3554;0,13523
692,3196;0,134879
693,2839;0,134478
694,2481;0,134031
695,2123;0,133554
696,1766;0,133071
697,1408;0,132594
698,1050;0,132121
699,0693;0,131642
700,0335;0,131142
700,9977;0,130613
701,9620;0,130054
702,9262;0,129471
703,8904;0,12886
704,8547;0,128225
705,8189;0,127572
706,7831;0,126916
707,7474;0,126272
708,7116;0,12565
709,6758;0,125043
710,6401;0,124422
711,6043;0,123756
712,5685;0,123029
713,5328;0,122267
714,4970;0,12153
715,4612;0,12055
716,4255;0,120091
717,3897;0,119726
718,3539;0,119319
719,3182;0,118706
720,2824;0,117786
721,2466;0,116583
722,2109;0,115237
723,1751;0,113925
724,1393;0,112766
725,1036;0,111792
726,0678;0,110961
727,0320;0,1102
727,9963;0,109447
728,9605;0,108674
729,9247;0,107881
730,8890;0,107087
731,8532;0,106318
732,8174;0,105601
733,7817;0,10496
734,7459;0,104409
735,7101;0,103942
736,6744;0,103532
737,6386;0,103138
738,6028;0,102719
739,5671;0,102255
740,5313;0,101749
741,4955;0,101227
742,4598;0,10072
743,4240;0,100247
744,3882;0,0998081
745,3525;0,0993896
746,3167;0,0989736
747,2809;0,0985496
748,2452;0,0981173
749,2094;0,0976819
750,1736;0,0972472
751,1379;0,096813
752,1021;0,0963775
753,0663;0,0959405
754,0306;0,0955044
754,9948;0,0950708
755,9590;0,0946372
756,9233;0,0941986
757,8875;0,0937542
758,8517;0,0933131
759,8160;0,092894
760,7802;0,092517
761,7444;0,0921915
762,7087;0,0919098
763,6729;0,0916493
764,6371;0,0913839
765,6014;0,0910958
766,5656;0,0907824
767,5298;0,0904555
768,4941;0,0901345
769,4583;0,089838
770,4225;0,0895772
771,3868;0,0893513
772,3510;0,0891468
773,3152;0,0889402
774,2795;0,088707
775,2437;0,0884322
776,2079;0,0881189
777,1722;0,087787
778,1364;0,0874622
779,1006;0,0871581
780,0649;0,0868654
781,0291;0,0865533
781,9933;0,0861856
782,9576;0,0857422
783,9218;0,0852329
784,8860;0,0846949
785,8503;0,0841748
786,8145;0,0837067
787,7787;0,0832984
788,7430;0,0829341
789,7072;0,0825902
790,6714;0,0822538
791,6357;0,081931
792,5999;0,0816403
793,5641;0,0813962
794,5284;0,0811954
795,4926;0,0810149
796,4568;0,0808249
797,4211;0,080607
798,3853;0,0803643
799,3495;0,0801177
800,3138;0,0798904
801,2780;0,0796934
802,2422;0,0795201
803,2065;0,0793539
804,1707;0,0791807
805,1349;0,0789978
806,0992;0,0788125
807,0634;0,0786354
808,0276;0,0784723
808,9919;0,0783211
809,9561;0,0781747
810,9203;0,0780261
811,8846;0,0778735
812,8488;0,0777222
813,8130;0,0775837
814,7773;0,0774711
815,7415;0,0773911
816,7057;0,0773385
817,6700;0,0772952
818,6342;0,0772374
819,5984;0,077149
820,5627;0,0770305
821,5269;0,0769005
822,4911;0,0767837
823,4554;0,0766962
824,4196;0,0766356
825,3839;0,0765832
826,3481;0,0765149
827,3123;0,0764132
828,2766;0,0762729
829,2408;0,0760982
830,2050;0,0758961
831,1693;0,0756727
832,1335;0,0754331
833,0977;0,0751828
834,0620;0,0749282
835,0262;0,074674
835,9904;0,0744219
836,9547;0,0741712
837,9189;0,073921
838,8831;0,0736726
839,8474;0,073428
840,8116;0,0731875
841,7758;0,0729487
842,7401;0,0727094
843,7043;0,0724724
844,6685;0,0722482
845,6328;0,0720504
846,5970;0,0718888
847,5612;0,0717626
848,5255;0,0716603
849,4897;0,0715662
850,4539;0,0714677
851,4182;0,0713596
852,3824;0,0712417
853,3466;0,0711152
854,3109;0,0709809
855,2751;0,0708411
856,2393;0,0707023
857,2036;0,0705739
858,1678;0,0704639
859,1320;0,0703726
860,0963;0,0702921
861,0605;0,0702116
862,0247;0,070127
862,9890;0,0700476
863,9532;0,0699956
864,9174;0,069998
865,8817;0,0700764
866,8459;0,0702387
867,8101;0,0704779
868,7744;0,0707758
869,7386;0,0711088
870,7028;0,0714533
871,6671;0,0717884
872,6313;0,0720985
873,5955;0,072374
874,5598;0,072614
875,5240;0,0728268
876,4882;0,0730296
877,4525;0,0732447
878,4167;0,073495
879,3809;0,0737998
880,3452;0,0741733
881,3094;0,0746252
882,2736;0,0751624
883,2379;0,0757902
884,2021;0,0765104
885,1663;0,0773197
886,1306;0,0782092
887,0948;0,079165
888,0590;0,0801699
889,0233;0,0812037
889,9875;0,0822419
890,9517;0,0832536
891,9160;0,0842023
892,8802;0,0850489
893,8444;0,0857577
894,8087;0,0863015
895,7729;0,0866646
896,7371;0,0868426
897,7014;0,0868412
898,6656;0,0866734
899,6298;0,086358
900,5941;0,0859164
901,5583;0,085371
902,5225;0,0847442
903,4868;0,0840599
904,4510;0,0833452
905,4152;0,0826302
906,3795;0,0819452
907,3437;0,0813161
908,3079;0,08076
909,2722;0,0802851
910,2364;0,0798932
911,2007;0,0795828
912,1649;0,0793496
913,1292;0,0791869
914,0934;0,0790844
915,0576;0,0790315
916,0219;0,079021
916,9861;0,0790526
917,9503;0,0791306
918,9146;0,07926
919,8788;0,0794404
920,8430;0,0796655
921,8073;0,0799255
922,7715;0,0802119
923,7357;0,0805182
924,7000;0,0808378
925,6642;0,0811594
926,6284;0,0814666
927,5927;0,0817429
928,5569;0,0819798
929,5211;0,0821828
930,4854;0,0823706
931,4496;0,0825685
932,4138;0,0827996
933,3781;0,0830793
934,3423;0,0834139
935,3065;0,0838047
936,2708;0,0842521
937,2350;0,0847587
938,1992;0,0853301
939,1635;0,0859736
940,1277;0,086696
941,0919;0,0875015
942,0562;0,0883907
943,0204;0,0893611
943,9846;0,0904092
944,9489;0,0915325
945,9131;0,0927296
946,8773;0,0939977
947,8416;0,0953296
948,8058;0,0967131
949,7700;0,0981343
950,7343;0,0995851
951,6985;0,101068
952,6627;0,102597
953,6270;0,104189
954,5912;0,105855
955,5554;0,107597
956,5197;0,109402
957,4839;0,111251
958,4481;0,113125
959,4124;0,115008
960,3766;0,116889
961,3408;0,118755
962,3051;0,1206
963,2693;0,122422
964,2335;0,124229
965,1978;0,126039
966,1620;0,127878
967,1262;0,129767
968,0905;0,131718
969,0547;0,133736
970,0189;0,135826
970,9832;0,138001
971,9474;0,140293
972,9116;0,142741
973,8759;0,145386
974,8401;0,148251
975,8043;0,151335
976,7686;0,154616
977,7328;0,158051
978,6970;0,161584
979,6613;0,165144
980,6255;0,16864
981,5897;0,171968
982,5540;0,175028
983,5182;0,177752
984,4824;0,180126
985,4467;0,182193
986,4109;0,184033
987,3751;0,185728
988,3394;0,187338
989,3036;0,188884
990,2678;0,190359
991,2321;0,191748
992,1963;0,193035
993,1605;0,194221
994,1248;0,195311
995,0890;0,196316
996,0532;0,197243
997,0175;0,198095
997,9817;0,198874
998,9459;0,199586
999,9102;0,200253
1000,8744;0,200918
1001,8386;0,201636
1002,8029;0,20247
1003,7671;0,203469
1004,7313;0,204662
1005,6956;0,206054
1006,6598;0,207637
1007,6240;0,209396
1008,5883;0,211322
1009,5525;0,213399
1010,5167;0,215604
1011,4810;0,2179
1012,4452;0,220233
1013,4094;0,222541
1014,3737;0,224762
1015,3379;0,226837
1016,3021;0,228721
1017,2664;0,230384
1018,2306;0,23182
1019,1948;0,233038
1020,1591;0,234058
1021,1233;0,234901
1022,0875;0,235589
1023,0518;0,236144
1024,0160;0,23659
1024,9802;0,23695
1025,9445;0,237243
1026,9087;0,237466
1027,8729;0,237593
1028,8372;0,237572
1029,8014;0,237338
1030,7656;0,236822
1031,7299;0,235963
1032,6941;0,234723
1033,6583;0,233094
1034,6226;0,231112
1035,5868;0,228864
1036,5510;0,226484
1037,5153;0,22413
1038,4795;0,221959
1039,4437;0,22009
1040,4080;0,218586
1041,3722;0,217452
1042,3364;0,216641
1043,3007;0,216075
1044,2649;0,21566
1045,2291;0,215308
1046,1934;0,214944
1047,1576;0,214512
1048,1218;0,213974
1049,0861;0,2133
1050,0503;0,21247
1051,0145;0,211464
1051,9788;0,210268
1052,9430;0,208879
1053,9072;0,207303
1054,8715;0,205553
1055,8357;0,20363
1056,7999;0,201518
1057,7642;0,199181
1058,7284;0,196583
1059,6926;0,19371
1060,6569;0,190592
1061,6211;0,187312
1062,5853;0,183991
1063,5496;0,180753
1064,5138;0,177701
1065,4780;0,174895
1066,4423;0,172348
1067,4065;0,170039
1068,3707;0,167928
1069,3350;0,165967
1070,2992;0,16411
1071,2634;0,16231
1072,2277;0,160521
1073,1919;0,158705
1074,1561;0,156832
1075,1204;0,154891
1076,0846;0,152891
1077,0488;0,150862
1078,0131;0,148853
1078,9773;0,146921
1079,9415;0,145127
1080,9058;0,143522
1081,8700;0,142139
1082,8342;0,140984
1083,7985;0,140043
1084,7627;0,139284
1085,7269;0,138673
1086,6912;0,138179
1087,6554;0,137782
1088,6196;0,137472
1089,5839;0,137244
1090,5481;0,137098
1091,5123;0,137034
1092,4766;0,137049
1093,4408;0,137136
1094,4050;0,137281
1095,3693;0,137468
1096,3335;0,13768
1097,2977;0,137903
1098,2620;0,138123
1099,2262;0,138325
1100,1904;0,138486
1101,1547;0,138577
1102,1189;0,138569
1103,0831;0,138441
1104,0474;0,138193
1105,0116;0,137846
1105,9758;0,137434
1106,9401;0,13699
1107,9043;0,136529
1108,8685;0,13603
1109,8328;0,135438
1110,7970;0,134678
1111,7612;0,133683
1112,7255;0,132419
1113,6897;0,130913
1114,6539;0,129244
1115,6182;0,127523
1116,5824;0,125859
1117,5466;0,124328
1118,5109;0,122955
1119,4751;0,121708
1120,4393;0,120519
1121,4036;0,119298
1122,3678;0,117961
1123,3320;0,116448
1124,2963;0,114736
1125,2605;0,112842
1126,2247;0,11081
1127,1890;0,108693
1128,1532;0,106538
1129,1174;0,104374
1130,0817;0,102213
1131,0459;0,100063
1132,0101;0,0979377
1132,9744;0,0958709
1133,9386;0,0939124
1134,9028;0,0921222
1135,8671;0,0905584
1136,8313;0,0892655
1137,7955;0,0882682
1138,7598;0,0875718
1139,7240;0,0871659
1140,6882;0,0870291
1141,6525;0,0871313
1142,6167;0,0874353
1143,5809;0,0878979
1144,5452;0,0884747
1145,5094;0,0891278
1146,4736;0,0898336
1147,4379;0,0905851
1148,4021;0,091387
1149,3663;0,0922448
1150,3306;0,0931529
1151,2948;0,0940886
1152,2590;0,0950133
1153,2233;0,0958811
1154,1875;0,0966473
1155,1517;0,0972736
1156,1160;0,0977267
1157,0802;0,0979715
1158,0444;0,0979642
1159,0087;0,097648
1159,9729;0,096957
1160,9371;0,0958275
1161,9014;0,0942154
1162,8656;0,0921146
1163,8298;0,0895671
1164,7941;0,0866634
1165,7583;0,0835289
1166,7225;0,0803032
1167,6868;0,0771187
1168,6510;0,0740832
1169,6152;0,0712703
1170,5795;0,0687191
1171,5437;0,0664393
1172,5079;0,0644206
1173,4722;0,0626421
1174,4364;0,0610807
1175,4006;0,0597147
1176,3649;0,0585255
1177,3291;0,0574961
1178,2933;0,0566094
1179,2576;0,0558477
1180,2218;0,0551934
1181,1860;0,0546318
1182,1503;0,0541533
1183,1145;0,0537549
1184,0787;0,0534397
1185,0430;0,0532151
1186,0072;0,0530895
1186,9714;0,0530686
1187,9357;0,0531538
1188,8999;0,0533414
1189,8641;0,0536254
1190,8284;0,0539992
1191,7926;0,0544579
1192,7568;0,0549971
1193,7211;0,0556115
1194,6853;0,0562919
1195,6495;0,0570249
1196,6138;0,0577926
1197,5780;0,058575
1198,5422;0,0593516
1199,5065;0,0600227
1200,4707;0,0607465
1201,4349;0,0614225
1202,3992;0,0620452
1203,3634;0,0626125
1204,3276;0,0631237
1205,2919;0,0635789
1206,2561;0,0639804
1207,2203;0,0643368
1208,1846;0,0646678
1209,1488;0,0650048
1210,1130;0,0653871
1211,0773;0,0658537
1212,0415;0,0664323
1213,0057;0,0671334
1213,9700;0,0679486
1214,9342;0,068856
1215,8984;0,0698277
1216,8627;0,0708364
1217,8269;0,0718596
1218,7911;0,0728813
1219,7554;0,0738911
1220,7196;0,0748812
1221,6838;0,075844
1222,6481;0,076771
1223,6123;0,0776539
1224,5765;0,0784868
1225,5408;0,0792687
1226,5050;0,0800038
1227,4692;0,0806988
1228,4335;0,0813593
1229,3977;0,0819853
1230,3619;0,082571
1231,3262;0,0831045
1232,2904;0,0835717
1233,2546;0,0839597
1234,2189;0,0842612
1235,1831;0,0844783
1236,1473;0,0846235
1237,1116;0,0847172
1238,0758;0,0847812
1239,0400;0,084831
1240,0043;0,0848706
1240,9685;0,0848919
1241,9327;0,08488
1242,8970;0,084819
1243,8612;0,084697
1244,8254;0,0845084
1245,7897;0,084253
1246,7539;0,0839364
1247,7181;0,0835688
1248,6824;0,083165
1249,6466;0,0827421
1250,6108;0,0823167
1251,5751;0,0819025
1252,5393;0,0815102
1253,5035;0,0811472
1254,4678;0,0808167
1255,4320;0,0805147
1256,3962;0,0802277
1257,3605;0,0799336
1258,3247;0,0796081
1259,2889;0,0792337
1260,2532;0,078807
1261,2174;0,0783371
1262,1816;0,0778385
1263,1459;0,0773206
1264,1101;0,0767839
1265,0743;0,0762222
1266,0386;0,0756294
1267,0028;0,0750045
1267,9670;0,0743521
1268,9313;0,0736794
1269,8955;0,0729929
1270,8597;0,0722962
1271,8240;0,0715909
1272,7882;0,0708782
1273,7524;0,0701606
1274,7167;0,0694428
1275,6809;0,0687322
1276,6451;0,0680371
1277,6094;0,0673635
1278,5736;0,066712
1279,5378;0,0660766
1280,5021;0,0654473
1281,4663;0,0648167
1282,4305;0,0641849
1283,3948;0,0635622
1284,3590;0,0629663
1285,3232;0,0624172
1286,2875;0,0619328
1287,2517;0,0615255
1288,2159;0,0612024
1289,1802;0,060965
1290,1444;0,0608111
1291,1086;0,0607364
1292,0729;0,0607372
1293,0371;0,0608124
1294,0013;0,0609638
1294,9656;0,0611944
1295,9298;0,0615061
1296,8940;0,0618976
1297,8583;0,0623648
1298,8225;0,0629017
1299,7867;0,0635027
1300,7510;0,0641625
1301,7152;0,0648776
1302,6794;0,0656445
1303,6437;0,0664601
1304,6079;0,0673211
1305,5721;0,0682231
1306,5364;0,0691592
1307,5006;0,0701205
1308,4648;0,071097
1309,4291;0,0720766
1310,3933;0,0730431
1311,3575;0,0739726
1312,3218;0,0748335
1313,2860;0,0755898
1314,2502;0,0762081
1315,2145;0,0766598
1316,1787;0,0769214
1317,1429;0,0769757
1318,1072;0,0768202
1319,0714;0,0764787
1320,0356;0,0760051
1320,9999;0,07547
1321,9641;0,0749381
1322,9283;0,0744519
1323,8926;0,0740307
1324,8568;0,0736795
1325,8210;0,0733986
1326,7853;0,0731879
1327,7495;0,0730434
1328,7137;0,0729517
1329,6780;0,0728862
1330,6422;0,0728115
1331,6064;0,0726946
1332,5707;0,0725156
1333,5349;0,0722725
1334,4991;0,0719728
1335,4634;0,0716186
1336,4276;0,071196
1337,3918;0,0706756
1338,3561;0,0700338
1339,3203;0,0692859
1340,2845;0,0684972
1341,2488;0,0677516
1342,2130;0,0671051
1343,1772;0,0665706
1344,1415;0,0661362
1345,1057;0,0657881
1346,0699;0,0655237
1347,0342;0,0653508
1347,9984;0,0652817
1348,9626;0,0653248
1349,9269;0,0654775
1350,8911;0,0657259
1351,8553;0,0660477
1352,8196;0,06642
1353,7838;0,0668273
1354,7480;0,0672655
1355,7123;0,06774
1356,6765;0,0682587
1357,6407;0,0688248
1358,6050;0,0694341
1359,5692;0,0700742
1360,5334;0,0707192
