TITLE;
DATA TYPE;INFRARED SPECTRUM
ORIGIN;JASCO
OWNER;
DATE;25/02/19
TIME;15:26:38
SPECTROMETER/DATA SYSTEM;
LOCALE;9226
RESOLUTION;
DELTAX;0,964233
XUNITS;1/CM
YUNITS;ABSORBANCE
FIRSTX;  399,1927
LASTX; 4000,6047
NPOINTS;    3736
FIRSTY;     0,10207
MAXY;     0,14268
MINY;     0,00803
XYDATA
399,1927;0,102072
400,1569;0,102214
401,1211;0,102681
402,0854;0,103109
403,0496;0,103297
404,0138;0,103237
404,9781;0,103055
405,9423;0,10291
406,9065;0,102872
407,8708;0,102869
408,8350;0,102743
409,7992;0,102387
410,7635;0,101851
411,7277;0,101342
412,6919;0,101094
413,6562;0,101229
414,6204;0,101721
415,5846;0,102444
416,5489;0,103207
417,5131;0,103747
418,4773;0,103804
419,4416;0,103381
420,4058;0,102875
421,3700;0,102771
422,3343;0,103328
423,2985;0,104561
424,2627;0,106279
425,2270;0,108116
426,1912;0,109633
427,1554;0,110515
428,1197;0,110704
429,0839;0,110387
430,0481;0,109867
431,0124;0,109419
431,9766;0,109202
432,9408;0,109236
433,9051;0,109441
434,8693;0,109708
435,8335;0,109959
436,7978;0,110158
437,7620;0,110303
438,7262;0,110391
439,6905;0,110402
440,6547;0,110302
441,6189;0,110075
442,5832;0,109765
443,5474;0,109486
444,5116;0,109367
445,4759;0,109454
446,4401;0,109657
447,4043;0,109791
448,3686;0,109679
449,3328;0,109263
450,2970;0,108659
451,2613;0,108118
452,2255;0,107899
453,1897;0,108135
454,1540;0,108766
455,1182;0,109569
456,0824;0,110242
457,0467;0,110524
458,0109;0,110324
458,9751;0,10979
459,9394;0,109203
460,9036;0,108797
461,8678;0,108661
462,8321;0,108755
463,7963;0,108971
464,7605;0,109182
465,7248;0,109284
466,6890;0,109219
467,6532;0,108983
468,6175;0,1086
469,5817;0,108106
470,5459;0,107556
471,5102;0,107042
472,4744;0,106692
473,4386;0,106628
474,4029;0,106891
475,3671;0,107427
476,3313;0,108109
477,2956;0,108785
478,2598;0,109312
479,2240;0,109594
480,1883;0,109617
481,1525;0,109459
482,1167;0,109263
483,0810;0,109171
484,0452;0,109255
485,0094;0,109475
485,9737;0,109712
486,9379;0,109855
487,9021;0,109869
488,8664;0,109795
489,8306;0,109701
490,7948;0,109624
491,7591;0,109541
492,7233;0,109392
493,6875;0,109131
494,6518;0,108777
495,6160;0,108408
496,5802;0,108122
497,5445;0,107995
498,5087;0,108065
499,4729;0,10833
500,4372;0,108748
501,4014;0,109237
502,3656;0,109683
503,3299;0,109984
504,2941;0,110096
505,2583;0,110058
506,2226;0,109974
507,1868;0,109963
508,1510;0,110101
509,1153;0,110389
510,0795;0,110763
511,0437;0,111144
512,0080;0,111481
512,9722;0,11177
513,9365;0,112032
514,9007;0,112286
515,8649;0,112527
516,8292;0,112723
517,7934;0,112849
518,7576;0,112904
519,7219;0,112916
520,6861;0,112915
521,6503;0,112908
522,6146;0,112884
523,5788;0,112832
524,5430;0,112764
525,5073;0,112719
526,4715;0,11274
527,4357;0,11283
528,4000;0,112943
529,3642;0,113016
530,3284;0,11301
531,2927;0,112939
532,2569;0,112861
533,2211;0,112835
534,1854;0,112876
535,1496;0,112935
536,1138;0,112924
537,0781;0,112777
538,0423;0,112496
539,0065;0,112154
539,9708;0,111853
540,9350;0,111665
541,8992;0,111601
542,8635;0,11161
543,8277;0,111623
544,7919;0,111587
545,7562;0,111502
546,7204;0,111417
547,6846;0,111398
548,6489;0,111492
549,6131;0,111696
550,5773;0,111961
551,5416;0,112216
552,5058;0,112409
553,4700;0,112527
554,4343;0,1126
555,3985;0,112674
556,3627;0,112771
557,3270;0,11287
558,2912;0,112905
559,2554;0,1128
560,2197;0,112505
561,1839;0,112018
562,1481;0,111385
563,1124;0,110681
564,0766;0,109971
565,0408;0,109301
566,0051;0,108689
566,9693;0,108141
567,9335;0,107663
568,8978;0,107269
569,8620;0,106972
570,8262;0,106775
571,7905;0,106665
572,7547;0,106617
573,7189;0,106605
574,6832;0,106606
575,6474;0,106615
576,6116;0,106634
577,5759;0,10667
578,5401;0,106716
579,5043;0,106746
580,4686;0,10672
581,4328;0,106602
582,3970;0,106377
583,3613;0,106073
584,3255;0,105746
585,2897;0,105469
586,2540;0,105298
587,2182;0,105258
588,1824;0,105338
589,1467;0,105498
590,1109;0,105683
591,0751;0,105833
592,0394;0,105892
593,0036;0,105829
593,9678;0,105653
594,9321;0,105409
595,8963;0,105159
596,8605;0,104955
597,8248;0,104811
598,7890;0,104703
599,7532;0,104586
600,7175;0,104431
601,6817;0,104248
602,6459;0,104075
603,6102;0,103949
604,5744;0,103865
605,5386;0,103777
606,5029;0,103618
607,4671;0,103343
608,4313;0,102948
609,3956;0,102476
610,3598;0,101994
611,3240;0,101562
612,2883;0,101215
613,2525;0,100958
614,2167;0,100762
615,1810;0,100566
616,1452;0,100287
617,1094;0,099853
618,0737;0,0992341
619,0379;0,0984708
620,0021;0,0976535
620,9664;0,0968773
621,9306;0,0962023
622,8948;0,0956386
623,8591;0,0951572
624,8233;0,0946856
625,7875;0,0942411
626,7518;0,0938071
627,7160;0,093385
628,6802;0,0929803
629,6445;0,0926024
630,6087;0,0922598
631,5729;0,0919626
632,5372;0,091716
633,5014;0,0915135
634,4656;0,0913356
635,4299;0,0911556
636,3941;0,0909514
637,3583;0,0907165
638,3226;0,0904603
639,2868;0,0902005
640,2510;0,0899514
641,2153;0,0897186
642,1795;0,0895025
643,1437;0,0893063
644,1080;0,0891409
645,0722;0,0890206
646,0364;0,0889523
647,0007;0,0889251
647,9649;0,0889098
648,9291;0,0888691
649,8934;0,0887762
650,8576;0,0886307
651,8218;0,0884601
652,7861;0,0883089
653,7503;0,08822
654,7145;0,0882156
655,6788;0,088284
656,6430;0,0883846
657,6072;0,0884712
658,5715;0,0885167
659,5357;0,0885191
660,4999;0,0884816
661,4642;0,0883799
662,4284;0,088141
663,3926;0,0876625
664,3569;0,0868832
665,3211;0,0858904
666,2853;0,084982
667,2496;0,0845233
668,2138;0,0845296
669,1780;0,0846199
670,1423;0,0846199
671,1065;0,0845494
672,0707;0,0843128
673,0350;0,0838038
673,9992;0,0830428
674,9634;0,0821537
675,9277;0,0812658
676,8919;0,0804335
677,8561;0,0796303
678,8204;0,0788086
679,7846;0,0779626
680,7488;0,0771397
681,7131;0,0764102
682,6773;0,0758142
683,6415;0,0753399
684,6058;0,074936
685,5700;0,0745473
686,5342;0,0741416
687,4985;0,0737177
688,4627;0,0733012
689,4269;0,0729146
690,3912;0,0725749
691,3554;0,0722877
692,3196;0,0720467
693,2839;0,0718353
694,2481;0,0716305
695,2123;0,071409
696,1766;0,071154
697,1408;0,0708623
698,1050;0,0705454
699,0693;0,0702239
700,0335;0,0699162
700,9977;0,0696284
701,9620;0,0693536
702,9262;0,0690802
703,8904;0,0687933
704,8547;0,0685012
705,8189;0,0682138
706,7831;0,0679309
707,7474;0,0676353
708,7116;0,067302
709,6758;0,0669191
710,6401;0,0665018
711,6043;0,0660885
712,5685;0,0657196
713,5328;0,0654138
714,4970;0,0651588
715,4612;0,0643539
716,4255;0,0642249
717,3897;0,0641059
718,3539;0,0639475
719,3182;0,0636839
720,2824;0,0632584
721,2466;0,0626606
722,2109;0,0619451
723,1751;0,0612113
724,1393;0,0605573
725,1036;0,0600391
726,0678;0,0596526
727,0320;0,0593445
727,9963;0,0590452
728,9605;0,0587051
729,9247;0,0583167
730,8890;0,05791
731,8532;0,0575277
732,8174;0,0571989
733,7817;0,0569239
734,7459;0,0566793
735,7101;0,0564355
736,6744;0,0561744
737,6386;0,0558976
738,6028;0,0556199
739,5671;0,0553557
740,5313;0,0551067
741,4955;0,0548603
742,4598;0,0545983
743,4240;0,0543107
744,3882;0,0540039
745,3525;0,0536986
746,3167;0,053418
747,2809;0,0531734
748,2452;0,0529556
749,2094;0,0527382
750,1736;0,0524898
751,1379;0,0521898
752,1021;0,0518389
753,0663;0,0514594
754,0306;0,051085
754,9948;0,0507452
755,9590;0,0504525
756,9233;0,0501993
757,8875;0,0499655
758,8517;0,0497316
759,8160;0,04949
760,7802;0,0492474
761,7444;0,0490186
762,7087;0,0488149
763,6729;0,0486353
764,6371;0,0484663
765,6014;0,0482888
766,5656;0,0480886
767,5298;0,0478626
768,4941;0,0476195
769,4583;0,0473744
770,4225;0,0471416
771,3868;0,04693
772,3510;0,0467409
773,3152;0,0465699
774,2795;0,0464098
775,2437;0,0462528
776,2079;0,0460931
777,1722;0,0459273
778,1364;0,0457544
779,1006;0,0455746
780,0649;0,0453883
781,0291;0,0451968
781,9933;0,0450034
782,9576;0,0448144
783,9218;0,0446392
784,8860;0,044488
785,8503;0,0443681
786,8145;0,0442791
787,7787;0,0442104
788,7430;0,0441422
789,7072;0,0440501
790,6714;0,0439156
791,6357;0,0437364
792,5999;0,0435331
793,5641;0,0433441
794,5284;0,0432111
795,4926;0,0431579
796,4568;0,043176
797,4211;0,0432263
798,3853;0,0432566
799,3495;0,0432267
800,3138;0,0431264
801,2780;0,0429775
802,2422;0,04282
803,2065;0,0426917
804,1707;0,0426135
805,1349;0,042585
806,0992;0,0425886
807,0634;0,0425983
808,0276;0,042588
808,9919;0,0425394
809,9561;0,0424484
810,9203;0,0423266
811,8846;0,0421977
812,8488;0,0420859
813,8130;0,0420048
814,7773;0,0419515
815,7415;0,0419121
816,7057;0,0418727
817,6700;0,0418282
818,6342;0,0417821
819,5984;0,0417387
820,5627;0,0416949
821,5269;0,0416401
822,4911;0,0415637
823,4554;0,0414648
824,4196;0,041354
825,3839;0,0412477
826,3481;0,0411581
827,3123;0,0410893
828,2766;0,0410394
829,2408;0,0410062
830,2050;0,0409884
831,1693;0,0409799
832,1335;0,0409645
833,0977;0,0409171
834,0620;0,0408159
835,0262;0,0406567
835,9904;0,0404604
836,9547;0,0402659
837,9189;0,0401102
838,8831;0,0400107
839,8474;0,0399578
840,8116;0,0399231
841,7758;0,0398772
842,7401;0,0398047
843,7043;0,0397101
844,6685;0,0396123
845,6328;0,0395335
846,5970;0,0394882
847,5612;0,0394779
848,5255;0,0394915
849,4897;0,0395105
850,4539;0,0395168
851,4182;0,0395001
852,3824;0,0394612
853,3466;0,03941
854,3109;0,0393589
855,2751;0,0393152
856,2393;0,0392774
857,2036;0,0392381
858,1678;0,039192
859,1320;0,0391414
860,0963;0,0390967
861,0605;0,0390691
862,0247;0,039063
862,9890;0,0390738
863,9532;0,0390923
864,9174;0,0391142
865,8817;0,039145
866,8459;0,0391971
867,8101;0,0392804
868,7744;0,0393936
869,7386;0,039523
870,7028;0,0396495
871,6671;0,0397588
872,6313;0,039847
873,5955;0,0399187
874,5598;0,0399809
875,5240;0,0400384
876,4882;0,0400945
877,4525;0,040155
878,4167;0,0402306
879,3809;0,0403339
880,3452;0,0404741
881,3094;0,0406532
882,2736;0,0408686
883,2379;0,0411188
884,2021;0,0414093
885,1663;0,04175
886,1306;0,0421481
887,0948;0,0426
888,0590;0,043089
889,0233;0,0435921
889,9875;0,0440901
890,9517;0,0445744
891,9160;0,0450446
892,8802;0,0454991
893,8444;0,0459261
894,8087;0,0463014
895,7729;0,0465951
896,7371;0,0467825
897,7014;0,0468523
898,6656;0,0468069
899,6298;0,0466562
900,5941;0,0464117
901,5583;0,0460836
902,5225;0,0456848
903,4868;0,0452352
904,4510;0,0447628
905,4152;0,0442996
906,3795;0,0438739
907,3437;0,0435042
908,3079;0,0431983
909,2722;0,0429565
910,2364;0,0427763
911,2007;0,0426541
912,1649;0,0425843
913,1292;0,0425568
914,0934;0,0425581
915,0576;0,0425748
916,0219;0,0426007
916,9861;0,0426407
917,9503;0,0427084
918,9146;0,0428178
919,8788;0,0429739
920,8430;0,0431664
921,8073;0,0433718
922,7715;0,0435634
923,7357;0,0437229
924,7000;0,043847
925,6642;0,0439469
926,6284;0,0440398
927,5927;0,0441406
928,5569;0,0442574
929,5211;0,0443926
930,4854;0,0445475
931,4496;0,044725
932,4138;0,0449275
933,3781;0,0451529
934,3423;0,045392
935,3065;0,045631
936,2708;0,0458595
937,2350;0,0460776
938,1992;0,0463
939,1635;0,0465518
940,1277;0,0468591
941,0919;0,0472391
942,0562;0,0476939
943,0204;0,0482102
943,9846;0,0487666
944,9489;0,0493421
945,9131;0,049924
946,8773;0,0505117
947,8416;0,051115
948,8058;0,0517482
949,7700;0,0524255
950,7343;0,0531564
951,6985;0,0539454
952,6627;0,0547923
953,6270;0,0556925
954,5912;0,0566371
955,5554;0,0576143
956,5197;0,0586118
957,4839;0,0596199
958,4481;0,0606338
959,4124;0,0616522
960,3766;0,0626742
961,3408;0,0636966
962,3051;0,064714
963,2693;0,0657217
964,2335;0,0667188
965,1978;0,0677094
966,1620;0,0687016
967,1262;0,0697055
968,0905;0,0707341
969,0547;0,0718045
970,0189;0,0729381
970,9832;0,0741568
971,9474;0,0754772
972,9116;0,076907
973,8759;0,078447
974,8401;0,0800981
975,8043;0,0818678
976,7686;0,0837687
977,7328;0,0858094
978,6970;0,0879804
979,6613;0,0902446
980,6255;0,0925384
981,5897;0,0947831
982,5540;0,0969021
983,5182;0,0988358
984,4824;0,100551
985,4467;0,102043
986,4109;0,103332
987,3751;0,104452
988,3394;0,105446
989,3036;0,106348
990,2678;0,107179
991,2321;0,107946
992,1963;0,108648
993,1605;0,109283
994,1248;0,109861
995,0890;0,110402
996,0532;0,110929
997,0175;0,111459
997,9817;0,112001
998,9459;0,112553
999,9102;0,113117
1000,8744;0,113696
1001,8386;0,114304
1002,8029;0,114957
1003,7671;0,115667
1004,7313;0,116446
1005,6956;0,117305
1006,6598;0,118262
1007,6240;0,119335
1008,5883;0,120539
1009,5525;0,121872
1010,5167;0,123309
1011,4810;0,124808
1012,4452;0,126325
1013,4094;0,127819
1014,3737;0,129266
1015,3379;0,130648
1016,3021;0,131954
1017,2664;0,133173
1018,2306;0,134297
1019,1948;0,135327
1020,1591;0,136274
1021,1233;0,137151
1022,0875;0,137973
1023,0518;0,138746
1024,0160;0,139469
1024,9802;0,140139
1025,9445;0,140753
1026,9087;0,14131
1027,8729;0,141805
1028,8372;0,142221
1029,8014;0,142527
1030,7656;0,142677
1031,7299;0,142626
1032,6941;0,142335
1033,6583;0,141793
1034,6226;0,141022
1035,5868;0,140077
1036,5510;0,139033
1037,5153;0,137974
1038,4795;0,136974
1039,4437;0,136087
1040,4080;0,135347
1041,3722;0,134767
1042,3364;0,134341
1043,3007;0,134048
1044,2649;0,133847
1045,2291;0,13369
1046,1934;0,133524
1047,1576;0,133311
1048,1218;0,133024
1049,0861;0,132652
1050,0503;0,132187
1051,0145;0,131619
1051,9788;0,130936
1052,9430;0,130128
1053,9072;0,129197
1054,8715;0,128155
1055,8357;0,127016
1056,7999;0,125784
1057,7642;0,124447
1058,7284;0,122979
1059,6926;0,121356
1060,6569;0,119577
1061,6211;0,11767
1062,5853;0,115693
1063,5496;0,113718
1064,5138;0,111815
1065,4780;0,110031
1066,4423;0,108389
1067,4065;0,106891
1068,3707;0,105524
1069,3350;0,104272
1070,2992;0,103116
1071,2634;0,102036
1072,2277;0,101005
1073,1919;0,099983
1074,1561;0,0989275
1075,1204;0,0978002
1076,0846;0,0965839
1077,0488;0,0952919
1078,0131;0,0939673
1078,9773;0,0926713
1079,9415;0,0914647
1080,9058;0,0903918
1081,8700;0,0894719
1082,8342;0,0887018
1083,7985;0,0880626
1084,7627;0,0875277
1085,7269;0,0870682
1086,6912;0,0866556
1087,6554;0,0862664
1088,6196;0,0858865
1089,5839;0,0855165
1090,5481;0,0851718
1091,5123;0,0848767
1092,4766;0,0846539
1093,4408;0,0845141
1094,4050;0,0844503
1095,3693;0,0844409
1096,3335;0,0844583
1097,2977;0,0844808
1098,2620;0,0845
1099,2262;0,0845214
1100,1904;0,0845557
1101,1547;0,0846072
1102,1189;0,0846648
1103,0831;0,0847021
1104,0474;0,0846882
1105,0116;0,0846028
1105,9758;0,0844453
1106,9401;0,084232
1107,9043;0,0839821
1108,8685;0,0837009
1109,8328;0,0833724
1110,7970;0,0829663
1111,7612;0,082455
1112,7255;0,0818312
1113,6897;0,0811145
1114,6539;0,0803456
1115,6182;0,0795718
1116,5824;0,0788324
1117,5466;0,0781492
1118,5109;0,0775232
1119,4751;0,0769353
1120,4393;0,0763495
1121,4036;0,0757195
1122,3678;0,0749984
1123,3320;0,0741491
1124,2963;0,0731523
1125,2605;0,0720081
1126,2247;0,070731
1127,1890;0,0693439
1128,1532;0,0678734
1129,1174;0,0663488
1130,0817;0,0648034
1131,0459;0,0632727
1132,0101;0,0617897
1132,9744;0,0603798
1133,9386;0,0590581
1134,9028;0,0578338
1135,8671;0,0567175
1136,8313;0,0557277
1137,7955;0,0548901
1138,7598;0,054229
1139,7240;0,0537557
1140,6882;0,0534608
1141,6525;0,0533152
1142,6167;0,0532796
1143,5809;0,0533185
1144,5452;0,0534091
1145,5094;0,0535431
1146,4736;0,0537214
1147,4379;0,0539459
1148,4021;0,0542157
1149,3663;0,0545255
1150,3306;0,0548685
1151,2948;0,0552364
1152,2590;0,0556177
1153,2233;0,0559942
1154,1875;0,0563399
1155,1517;0,0566222
1156,1160;0,0568053
1157,0802;0,056854
1158,0444;0,0567353
1159,0087;0,0564192
1159,9729;0,0558802
1160,9371;0,0551011
1161,9014;0,0540775
1162,8656;0,052821
1163,8298;0,0513598
1164,7941;0,0497356
1165,7583;0,0480011
1166,7225;0,0462155
1167,6868;0,0444408
1168,6510;0,0427356
1169,6152;0,0411469
1170,5795;0,0397041
1171,5437;0,0384172
1172,5079;0,0372811
1173,4722;0,036284
1174,4364;0,0354144
1175,4006;0,0346643
1176,3649;0,0340268
1177,3291;0,0334924
1178,2933;0,033048
1179,2576;0,0326782
1180,2218;0,0323697
1181,1860;0,032114
1182,1503;0,0319073
1183,1145;0,0317474
1184,0787;0,0316315
1185,0430;0,0315551
1186,0072;0,0315147
1186,9714;0,03151
1187,9357;0,0315465
1188,8999;0,0316333
1189,8641;0,0317802
1190,8284;0,0319929
1191,7926;0,0322704
1192,7568;0,0326053
1193,7211;0,0329865
1194,6853;0,0334034
1195,6495;0,0338488
1196,6138;0,0343187
1197,5780;0,0348105
1198,5422;0,0353205
1199,5065;0,0357461
1200,4707;0,0362833
1201,4349;0,0368168
1202,3992;0,0373394
1203,3634;0,0378459
1204,3276;0,0383339
1205,2919;0,0388039
1206,2561;0,0392613
1207,2203;0,0397172
1208,1846;0,0401878
1209,1488;0,0406904
1210,1130;0,041239
1211,0773;0,0418398
1212,0415;0,04249
1213,0057;0,0431805
1213,9700;0,0438992
1214,9342;0,0446346
1215,8984;0,0453768
1216,8627;0,0461157
1217,8269;0,0468406
1218,7911;0,0475419
1219,7554;0,0482125
1220,7196;0,0488499
1221,6838;0,0494554
1222,6481;0,0500312
1223,6123;0,0505774
1224,5765;0,0510904
1225,5408;0,0515641
1226,5050;0,0519945
1227,4692;0,0523815
1228,4335;0,0527298
1229,3977;0,0530453
1230,3619;0,0533317
1231,3262;0,0535878
1232,2904;0,053809
1233,2546;0,0539904
1234,2189;0,0541297
1235,1831;0,054229
1236,1473;0,0542933
1237,1116;0,0543295
1238,0758;0,0543445
1239,0400;0,054343
1240,0043;0,0543258
1240,9685;0,0542874
1241,9327;0,0542172
1242,8970;0,0541032
1243,8612;0,0539385
1244,8254;0,053726
1245,7897;0,0534785
1246,7539;0,0532134
1247,7181;0,0529449
1248,6824;0,0526782
1249,6466;0,0524099
1250,6108;0,0521327
1251,5751;0,0518415
1252,5393;0,0515371
1253,5035;0,0512253
1254,4678;0,0509133
1255,4320;0,0506056
1256,3962;0,0503016
1257,3605;0,0499957
1258,3247;0,04968
1259,2889;0,0493461
1260,2532;0,048988
1261,2174;0,0486029
1262,1816;0,0481907
1263,1459;0,0477525
1264,1101;0,0472904
1265,0743;0,0468065
1266,0386;0,046303
1267,0028;0,0457818
1267,9670;0,0452437
1268,9313;0,0446874
1269,8955;0,0441107
1270,8597;0,0435124
1271,8240;0,0428954
1272,7882;0,042268
1273,7524;0,0416426
1274,7167;0,0410321
1275,6809;0,0404467
1276,6451;0,0398908
1277,6094;0,0393635
1278,5736;0,0388604
1279,5378;0,0383768
1280,5021;0,0379107
1281,4663;0,0374629
1282,4305;0,0370359
1283,3948;0,0366315
1284,3590;0,0362493
1285,3232;0,0358881
1286,2875;0,0355483
1287,2517;0,035234
1288,2159;0,0349532
1289,1802;0,0347135
1290,1444;0,0345187
1291,1086;0,0343664
1292,0729;0,0342509
1293,0371;0,0341675
1294,0013;0,0341163
1294,9656;0,0341023
1295,9298;0,0341319
1296,8940;0,0342089
1297,8583;0,0343321
1298,8225;0,0344979
1299,7867;0,0347027
1300,7510;0,0349449
1301,7152;0,0352245
1302,6794;0,0355392
1303,6437;0,0358827
1304,6079;0,0362465
1305,5721;0,036623
1306,5364;0,0370081
1307,5006;0,0374016
1308,4648;0,0378043
1309,4291;0,0382147
1310,3933;0,0386262
1311,3575;0,0390284
1312,3218;0,0394099
1313,2860;0,0397612
1314,2502;0,0400749
1315,2145;0,0403423
1316,1787;0,0405502
1317,1429;0,0406812
1318,1072;0,0407209
1319,0714;0,0406687
1320,0356;0,0405431
1320,9999;0,040377
1321,9641;0,0402041
1322,9283;0,0400475
1323,8926;0,0399162
1324,8568;0,0398084
1325,8210;0,0397162
1326,7853;0,0396309
1327,7495;0,0395448
1328,7137;0,0394524
1329,6780;0,0393502
1330,6422;0,0392375
1331,6064;0,039116
1332,5707;0,0389877
1333,5349;0,0388539
1334,4991;0,0387099
1335,4634;0,0385434
1336,4276;0,0383334
1337,3918;0,0380558
1338,3561;0,0376967
1339,3203;0,0372719
1340,2845;0,0368308
1341,2488;0,0364309
1342,2130;0,0361056
1343,1772;0,0358569
1344,1415;0,0356709
1345,1057;0,0355344
1346,0699;0,0354422
1347,0342;0,0353956
1347,9984;0,0353991
1348,9626;0,0354563
1349,9269;0,0355666
