TITLE;
DATA TYPE;INFRARED SPECTRUM
ORIGIN;JASCO
OWNER;
DATE;25/02/19
TIME;15:33:18
SPECTROMETER/DATA SYSTEM;
LOCALE;9226
RESOLUTION;
DELTAX;0,964233
XUNITS;1/CM
YUNITS;ABSORBANCE
FIRSTX;  399,1927
LASTX; 4000,6047
NPOINTS;    3736
FIRSTY;     0,15829
MAXY;     0,25003
MINY;     0,01606
XYDATA
399,1927;0,15829
400,1569;0,160163
401,1211;0,160746
402,0854;0,160608
403,0496;0,160153
404,0138;0,159552
404,9781;0,158863
405,9423;0,158162
406,9065;0,157594
407,8708;0,157318
408,8350;0,157407
409,7992;0,157786
410,7635;0,158256
411,7277;0,158596
412,6919;0,158702
413,6562;0,158645
414,6204;0,158625
415,5846;0,158895
416,5489;0,15969
417,5131;0,161102
418,4773;0,162855
419,4416;0,164301
420,4058;0,164983
421,3700;0,165046
422,3343;0,164947
423,2985;0,165053
424,2627;0,165514
425,2270;0,166245
426,1912;0,166979
427,1554;0,167393
428,1197;0,167268
429,0839;0,166608
430,0481;0,165645
431,0124;0,164759
431,9766;0,164314
432,9408;0,164488
433,9051;0,165197
434,8693;0,166153
435,8335;0,167034
436,7978;0,167644
437,7620;0,167951
438,7262;0,167998
439,6905;0,167781
440,6547;0,167238
441,6189;0,166354
442,5832;0,165311
443,5474;0,164519
444,5116;0,164408
445,4759;0,165126
446,4401;0,166402
447,4043;0,167676
448,3686;0,168373
449,3328;0,168161
450,2970;0,167087
451,2613;0,16555
452,2255;0,164103
453,1897;0,163202
454,1540;0,16305
455,1182;0,163577
456,0824;0,16452
457,0467;0,165537
458,0109;0,166339
458,9751;0,16682
459,9394;0,16704
460,9036;0,167088
461,8678;0,166961
462,8321;0,166572
463,7963;0,165851
464,7605;0,16486
465,7248;0,163841
466,6890;0,163116
467,6532;0,162914
468,6175;0,163243
469,5817;0,163895
470,5459;0,164565
471,5102;0,165013
472,4744;0,16519
473,4386;0,165244
474,4029;0,165375
475,3671;0,165676
476,3313;0,166088
477,2956;0,166467
478,2598;0,166681
479,2240;0,166681
480,1883;0,166528
481,1525;0,16636
482,1167;0,166328
483,0810;0,166527
484,0452;0,166952
485,0094;0,167498
485,9737;0,168013
486,9379;0,168369
487,9021;0,168498
488,8664;0,168402
489,8306;0,168134
490,7948;0,167793
491,7591;0,167499
492,7233;0,167364
493,6875;0,167442
494,6518;0,167716
495,6160;0,16812
496,5802;0,16858
497,5445;0,169058
498,5087;0,169549
499,4729;0,170068
500,4372;0,170622
501,4014;0,17119
502,3656;0,171729
503,3299;0,172196
504,2941;0,172568
505,2583;0,172843
506,2226;0,17303
507,1868;0,173156
508,1510;0,173271
509,1153;0,173444
510,0795;0,173748
511,0437;0,174231
512,0080;0,174896
512,9722;0,175704
513,9365;0,17659
514,9007;0,177471
515,8649;0,17826
516,8292;0,17888
517,7934;0,179288
518,7576;0,179505
519,7219;0,179615
520,6861;0,179713
521,6503;0,179855
522,6146;0,180044
523,5788;0,180242
524,5430;0,180407
525,5073;0,18052
526,4715;0,180593
527,4357;0,180649
528,4000;0,180691
529,3642;0,180693
530,3284;0,180625
531,2927;0,18048
532,2569;0,180279
533,2211;0,180066
534,1854;0,179868
535,1496;0,179681
536,1138;0,179481
537,0781;0,179247
538,0423;0,178988
539,0065;0,178742
539,9708;0,178547
540,9350;0,178417
541,8992;0,178336
542,8635;0,178275
543,8277;0,17822
544,7919;0,17819
545,7562;0,178232
546,7204;0,178386
547,6846;0,178654
548,6489;0,178991
549,6131;0,179329
550,5773;0,179611
551,5416;0,179831
552,5058;0,180036
553,4700;0,180306
554,4343;0,18071
555,3985;0,181259
556,3627;0,181887
557,3270;0,182454
558,2912;0,182792
559,2554;0,182759
560,2197;0,182289
561,1839;0,181412
562,1481;0,180239
563,1124;0,178924
564,0766;0,177619
565,0408;0,176433
566,0051;0,17543
566,9693;0,174632
567,9335;0,174037
568,8978;0,17362
569,8620;0,173339
570,8262;0,173145
571,7905;0,172991
572,7547;0,172849
573,7189;0,172708
574,6832;0,172569
575,6474;0,172439
576,6116;0,172318
577,5759;0,1722
578,5401;0,172084
579,5043;0,171972
580,4686;0,171867
581,4328;0,17177
582,3970;0,171675
583,3613;0,171576
584,3255;0,171476
585,2897;0,171396
586,2540;0,171373
587,2182;0,171439
588,1824;0,171606
589,1467;0,171854
590,1109;0,172124
591,0751;0,172336
592,0394;0,172415
593,0036;0,172323
593,9678;0,172072
594,9321;0,171717
595,8963;0,171321
596,8605;0,170934
597,8248;0,170575
598,7890;0,17024
599,7532;0,169922
600,7175;0,169624
601,6817;0,169357
602,6459;0,169127
603,6102;0,168918
604,5744;0,168689
605,5386;0,168389
606,5029;0,167986
607,4671;0,167479
608,4313;0,166901
609,3956;0,166291
610,3598;0,165682
611,3240;0,165096
612,2883;0,164548
613,2525;0,164057
614,2167;0,163629
615,1810;0,163235
616,1452;0,162799
617,1094;0,162217
618,0737;0,161409
619,0379;0,160367
620,0021;0,159163
620,9664;0,157899
621,9306;0,156656
622,8948;0,15547
623,8591;0,154344
624,8233;0,153253
625,7875;0,152253
626,7518;0,151378
627,7160;0,150654
628,6802;0,150076
629,6445;0,149607
630,6087;0,149195
631,5729;0,148798
632,5372;0,1484
633,5014;0,148003
634,4656;0,147608
635,4299;0,147197
636,3941;0,146745
637,3583;0,146232
638,3226;0,145667
639,2868;0,145094
640,2510;0,144568
641,2153;0,144133
642,1795;0,143799
643,1437;0,143547
644,1080;0,143344
645,0722;0,143161
646,0364;0,14298
647,0007;0,142791
647,9649;0,14259
648,9291;0,142376
649,8934;0,142165
650,8576;0,141983
651,8218;0,141855
652,7861;0,141786
653,7503;0,141758
654,7145;0,141742
655,6788;0,141723
656,6430;0,141716
657,6072;0,14176
658,5715;0,141891
659,5357;0,142087
660,4999;0,142254
661,4642;0,142252
662,4284;0,141962
663,3926;0,141337
664,3569;0,140416
665,3211;0,139365
666,2853;0,13849
667,2496;0,138095
668,2138;0,138095
669,1780;0,137986
670,1423;0,137514
671,1065;0,136757
672,0707;0,135743
673,0350;0,134451
673,9992;0,132927
674,9634;0,131305
675,9277;0,12974
676,8919;0,128324
677,8561;0,127054
678,8204;0,125874
679,7846;0,124744
680,7488;0,12367
681,7131;0,122681
682,6773;0,121794
683,6415;0,121001
684,6058;0,120275
685,5700;0,119593
686,5342;0,118946
687,4985;0,118327
688,4627;0,117733
689,4269;0,117157
690,3912;0,116603
691,3554;0,116089
692,3196;0,115633
693,2839;0,115242
694,2481;0,114904
695,2123;0,114591
696,1766;0,114274
697,1408;0,113933
698,1050;0,113565
699,0693;0,113175
700,0335;0,112768
700,9977;0,112345
701,9620;0,111901
702,9262;0,111429
703,8904;0,110924
704,8547;0,110398
705,8189;0,109866
706,7831;0,109341
707,7474;0,108827
708,7116;0,108317
709,6758;0,107805
710,6401;0,107289
711,6043;0,106766
712,5685;0,106239
713,5328;0,105713
714,4970;0,105198
715,4612;0,1043
716,4255;0,103939
717,3897;0,103634
718,3539;0,103314
719,3182;0,102873
720,2824;0,102229
721,2466;0,101377
722,2109;0,100402
723,1751;0,0994263
724,1393;0,098551
725,1036;0,0978089
726,0678;0,0971673
727,0320;0,0965583
727,9963;0,0959205
728,9605;0,0952293
729,9247;0,0945039
730,8890;0,0937919
731,8532;0,0931439
732,8174;0,092591
733,7817;0,0921331
734,7459;0,0917414
735,7101;0,091374
736,6744;0,0909959
737,6386;0,0905926
738,6028;0,0901704
739,5671;0,0897435
740,5313;0,0893195
741,4955;0,0888936
742,4598;0,0884555
743,4240;0,0880025
744,3882;0,0875452
745,3525;0,0871013
746,3167;0,0866803
747,2809;0,0862741
748,2452;0,0858599
749,2094;0,0854145
750,1736;0,0849297
751,1379;0,0844169
752,1021;0,0838994
753,0663;0,0833985
754,0306;0,0829249
754,9948;0,0824789
755,9590;0,082058
756,9233;0,0816634
757,8875;0,0812997
758,8517;0,0809688
759,8160;0,0806635
760,7802;0,0803663
761,7444;0,0800565
762,7087;0,079719
763,6729;0,0793512
764,6371;0,0789637
765,6014;0,078575
766,5656;0,0782035
767,5298;0,077862
768,4941;0,0775539
769,4583;0,0772739
770,4225;0,0770108
771,3868;0,0767512
772,3510;0,0764855
773,3152;0,0762112
774,2795;0,0759346
775,2437;0,075667
776,2079;0,0754181
777,1722;0,0751902
778,1364;0,0749753
779,1006;0,0747591
780,0649;0,074528
781,0291;0,0742756
781,9933;0,0740051
782,9576;0,0737266
783,9218;0,0734521
784,8860;0,0731906
785,8503;0,0729455
786,8145;0,0727146
787,7787;0,0724915
788,7430;0,0722682
789,7072;0,0720388
790,6714;0,0718039
791,6357;0,0715726
792,5999;0,071361
793,5641;0,0711852
794,5284;0,0710523
795,4926;0,0709542
796,4568;0,0708696
797,4211;0,0707733
798,3853;0,0706491
799,3495;0,0704985
800,3138;0,0703395
801,2780;0,0701957
802,2422;0,0700825
803,2065;0,0699981
804,1707;0,0699255
805,1349;0,069843
806,0992;0,0697369
807,0634;0,0696078
808,0276;0,0694674
808,9919;0,069329
809,9561;0,0692003
810,9203;0,0690824
811,8846;0,0689736
812,8488;0,0688747
813,8130;0,0687875
814,7773;0,0687101
815,7415;0,0686338
816,7057;0,0685463
817,6700;0,0684414
818,6342;0,0683253
819,5984;0,0682146
820,5627;0,0681249
821,5269;0,0680593
822,4911;0,0680049
823,4554;0,0679412
824,4196;0,0678542
825,3839;0,0677452
826,3481;0,067629
827,3123;0,0675257
828,2766;0,0674503
829,2408;0,0674085
830,2050;0,0673953
831,1693;0,0673965
832,1335;0,0673899
833,0977;0,0673498
834,0620;0,0672554
835,0262;0,0670998
835,9904;0,0668938
836,9547;0,0666597
837,9189;0,0664182
838,8831;0,0661789
839,8474;0,0659414
840,8116;0,0657051
841,7758;0,0654789
842,7401;0,0652816
843,7043;0,0651313
844,6685;0,0650325
845,6328;0,0649733
846,5970;0,0649333
847,5612;0,064897
848,5255;0,0648618
849,4897;0,0648333
850,4539;0,064815
851,4182;0,0647996
852,3824;0,064772
853,3466;0,0647191
854,3109;0,0646401
855,2751;0,0645481
856,2393;0,0644631
857,2036;0,0644022
858,1678;0,0643739
859,1320;0,0643787
860,0963;0,0644125
861,0605;0,0644706
862,0247;0,0645477
862,9890;0,0646375
863,9532;0,0647344
864,9174;0,0648356
865,8817;0,0649438
866,8459;0,0650664
867,8101;0,0652113
868,7744;0,0653828
869,7386;0,0655794
870,7028;0,0657952
871,6671;0,0660212
872,6313;0,0662457
873,5955;0,0664526
874,5598;0,0666213
875,5240;0,0667319
876,4882;0,0667746
877,4525;0,0667605
878,4167;0,0667238
879,3809;0,0667143
880,3452;0,0667817
881,3094;0,066959
882,2736;0,0672539
883,2379;0,0676524
884,2021;0,0681293
885,1663;0,0686609
886,1306;0,0692327
887,0948;0,0698401
888,0590;0,0704844
889,0233;0,0711672
889,9875;0,0718862
890,9517;0,0726321
891,9160;0,0733869
892,8802;0,0741233
893,8444;0,0748065
894,8087;0,0753969
895,7729;0,0758549
896,7371;0,0761462
897,7014;0,0762466
898,6656;0,0761471
899,6298;0,0758573
900,5941;0,0754055
901,5583;0,0748344
902,5225;0,0741932
903,4868;0,0735291
904,4510;0,0728825
905,4152;0,0722859
906,3795;0,0717649
907,3437;0,0713382
908,3079;0,0710143
909,2722;0,0707879
910,2364;0,0706415
911,2007;0,0705532
912,1649;0,0705079
913,1292;0,0705042
914,0934;0,0705508
915,0576;0,0706557
916,0219;0,0708149
916,9861;0,071011
917,9503;0,0712224
918,9146;0,0714366
919,8788;0,071657
920,8430;0,0718975
921,8073;0,072169
922,7715;0,0724681
923,7357;0,0727762
924,7000;0,0730699
925,6642;0,0733342
926,6284;0,0735688
927,5927;0,0737854
928,5569;0,0739983
929,5211;0,0742165
930,4854;0,074442
931,4496;0,0746733
932,4138;0,0749099
933,3781;0,0751541
934,3423;0,0754111
935,3065;0,0756867
936,2708;0,0759869
937,2350;0,0763175
938,1992;0,0766834
939,1635;0,0770881
940,1277;0,0775336
941,0919;0,0780212
942,0562;0,0785527
943,0204;0,0791301
943,9846;0,0797541
944,9489;0,0804229
945,9131;0,0811327
946,8773;0,0818803
947,8416;0,0826656
948,8058;0,0834914
949,7700;0,0843611
950,7343;0,0852765
951,6985;0,086239
952,6627;0,0872541
953,6270;0,0883347
954,5912;0,0894993
955,5554;0,090765
956,5197;0,0921387
957,4839;0,0936115
958,4481;0,0951612
959,4124;0,0967587
960,3766;0,0983762
961,3408;0,0999923
962,3051;0,101595
963,2693;0,103182
964,2335;0,104767
965,1978;0,106371
966,1620;0,108023
967,1262;0,109749
968,0905;0,111562
969,0547;0,113469
970,0189;0,115467
970,9832;0,117564
971,9474;0,119784
972,9116;0,122166
973,8759;0,124758
974,8401;0,127606
975,8043;0,130736
976,7686;0,134157
977,7328;0,137851
978,6970;0,141774
979,6613;0,14586
980,6255;0,150014
981,5897;0,154125
982,5540;0,158072
983,5182;0,161743
984,4824;0,165059
985,4467;0,167983
986,4109;0,170522
987,3751;0,172713
988,3394;0,174604
989,3036;0,176232
990,2678;0,177623
991,2321;0,178796
992,1963;0,179779
993,1605;0,18062
994,1248;0,181384
995,0890;0,182143
996,0532;0,182947
997,0175;0,183817
997,9817;0,184738
998,9459;0,185677
999,9102;0,186607
1000,8744;0,187527
1001,8386;0,188465
1002,8029;0,189467
1003,7671;0,190586
1004,7313;0,191858
1005,6956;0,193307
1006,6598;0,194949
1007,6240;0,196798
1008,5883;0,198874
1009,5525;0,20119
1010,5167;0,203738
1011,4810;0,206484
1012,4452;0,209366
1013,4094;0,212313
1014,3737;0,21525
1015,3379;0,218122
1016,3021;0,220887
1017,2664;0,223522
1018,2306;0,226018
1019,1948;0,228381
1020,1591;0,230628
1021,1233;0,232785
1022,0875;0,234877
1023,0518;0,23692
1024,0160;0,238918
1024,9802;0,240863
1025,9445;0,242736
1026,9087;0,24451
1027,8729;0,246148
1028,8372;0,247597
1029,8014;0,248787
1030,7656;0,249629
1031,7299;0,25003
1032,6941;0,249908
1033,6583;0,249216
1034,6226;0,247963
1035,5868;0,24623
1036,5510;0,244162
1037,5153;0,24195
1038,4795;0,239795
1039,4437;0,23787
1040,4080;0,236291
1041,3722;0,235106
1042,3364;0,234301
1043,3007;0,233811
1044,2649;0,233544
1045,2291;0,233398
1046,1934;0,233276
1047,1576;0,233097
1048,1218;0,232798
1049,0861;0,232333
1050,0503;0,231672
1051,0145;0,230789
1051,9788;0,229668
1052,9430;0,228293
1053,9072;0,226655
1054,8715;0,22475
1055,8357;0,222576
1056,7999;0,220125
1057,7642;0,21738
1058,7284;0,214316
1059,6926;0,210919
1060,6569;0,207205
1061,6211;0,203241
1062,5853;0,199147
1063,5496;0,195075
1064,5138;0,191176
1065,4780;0,187555
1066,4423;0,184255
1067,4065;0,181256
1068,3707;0,178502
1069,3350;0,175935
1070,2992;0,17351
1071,2634;0,171203
1072,2277;0,16899
1073,1919;0,166833
1074,1561;0,16468
1075,1204;0,162477
1076,0846;0,160192
1077,0488;0,157835
1078,0131;0,155457
1078,9773;0,153136
1079,9415;0,150951
1080,9058;0,148961
1081,8700;0,147196
1082,8342;0,145659
1083,7985;0,144336
1084,7627;0,143204
1085,7269;0,142237
1086,6912;0,14141
1087,6554;0,140701
1088,6196;0,140094
1089,5839;0,139582
1090,5481;0,139166
1091,5123;0,138851
1092,4766;0,138645
1093,4408;0,13855
1094,4050;0,138568
1095,3693;0,138691
1096,3335;0,13891
1097,2977;0,139211
1098,2620;0,139575
1099,2262;0,139978
1100,1904;0,140393
1101,1547;0,140789
1102,1189;0,141137
1103,0831;0,141411
1104,0474;0,14159
1105,0116;0,141655
1105,9758;0,141593
1106,9401;0,141393
1107,9043;0,141044
1108,8685;0,140533
1109,8328;0,139841
1110,7970;0,138952
1111,7612;0,137862
1112,7255;0,136584
1113,6897;0,135162
1114,6539;0,13366
1115,6182;0,132153
1116,5824;0,130705
1117,5466;0,129355
1118,5109;0,12811
1119,4751;0,126945
1120,4393;0,12581
1121,4036;0,124638
1122,3678;0,123355
1123,3320;0,121892
1124,2963;0,120202
1125,2605;0,118267
1126,2247;0,116108
1127,1890;0,113776
1128,1532;0,111341
1129,1174;0,108871
1130,0817;0,106416
1131,0459;0,104009
1132,0101;0,101667
1132,9744;0,0994031
1133,9386;0,0972418
1134,9028;0,0952221
1135,8671;0,0933934
1136,8313;0,0918042
1137,7955;0,0904892
1138,7598;0,0894602
1139,7240;0,0887057
1140,6882;0,0881961
1141,6525;0,087892
1142,6167;0,0877528
1143,5809;0,0877427
1144,5452;0,0878352
1145,5094;0,0880153
1146,4736;0,0882788
1147,4379;0,0886284
1148,4021;0,0890675
1149,3663;0,0895931
1150,3306;0,0901925
1151,2948;0,0908428
1152,2590;0,0915141
1153,2233;0,0921723
1154,1875;0,0927805
1155,1517;0,0932986
1156,1160;0,0936819
1157,0802;0,0938809
1158,0444;0,0938418
1159,0087;0,0935081
1159,9729;0,0928232
1160,9371;0,0917376
1161,9014;0,0902183
1162,8656;0,0882609
1163,8298;0,0858976
1164,7941;0,0831988
1165,7583;0,0802657
1166,7225;0,0772169
1167,6868;0,0741722
1168,6510;0,0712373
1169,6152;0,0684933
1170,5795;0,065991
1171,5437;0,0637517
1172,5079;0,0617734
1173,4722;0,0600397
1174,4364;0,0585284
1175,4006;0,0572175
1176,3649;0,0560872
1177,3291;0,0551206
1178,2933;0,0543015
1179,2576;0,0536143
1180,2218;0,0530441
1181,1860;0,0525772
1182,1503;0,0522022
1183,1145;0,0519105
1184,0787;0,051696
1185,0430;0,0515545
1186,0072;0,0514825
1186,9714;0,0514769
1187,9357;0,0515352
1188,8999;0,0516576
1189,8641;0,0518489
1190,8284;0,0521177
1191,7926;0,0524735
1192,7568;0,0529215
1193,7211;0,0534594
1194,6853;0,0540757
1195,6495;0,0547527
1196,6138;0,0554705
1197,5780;0,056211
1198,5422;0,05696
1199,5065;0,0576139
1200,4707;0,0583651
1201,4349;0,0591057
1202,3992;0,0598335
1203,3634;0,0605462
1204,3276;0,0612409
1205,2919;0,0619144
1206,2561;0,0625654
1207,2203;0,0631977
1208,1846;0,0638234
1209,1488;0,064463
1210,1130;0,0651432
1211,0773;0,065891
1212,0415;0,0667267
1213,0057;0,0676578
1213,9700;0,0686755
1214,9342;0,0697561
1215,8984;0,0708679
1216,8627;0,0719791
1217,8269;0,0730659
1218,7911;0,0741176
1219,7554;0,0751351
1220,7196;0,0761243
1221,6838;0,0770883
1222,6481;0,0780243
1223,6123;0,0789237
1224,5765;0,0797778
1225,5408;0,0805825
1226,5050;0,0813398
1227,4692;0,0820546
1228,4335;0,0827294
1229,3977;0,08336
1230,3619;0,0839357
1231,3262;0,0844442
1232,2904;0,0848776
1233,2546;0,085236
1234,2189;0,0855273
1235,1831;0,0857637
1236,1473;0,0859565
1237,1116;0,0861137
1238,0758;0,0862389
1239,0400;0,0863324
1240,0043;0,0863917
1240,9685;0,0864112
1241,9327;0,0863828
1242,8970;0,086297
1243,8612;0,0861464
1244,8254;0,085928
1245,7897;0,085645
1246,7539;0,0853053
1247,7181;0,0849192
1248,6824;0,0844972
1249,6466;0,0840485
1250,6108;0,0835823
1251,5751;0,0831074
1252,5393;0,082632
1253,5035;0,0821615
1254,4678;0,0816965
1255,4320;0,0812313
1256,3962;0,0807559
1257,3605;0,0802594
1258,3247;0,079734
1259,2889;0,0791766
1260,2532;0,0785883
1261,2174;0,077971
1262,1816;0,0773242
1263,1459;0,0766444
1264,1101;0,0759268
1265,0743;0,075169
1266,0386;0,0743721
1267,0028;0,0735409
1267,9670;0,0726817
1268,9313;0,0718018
1269,8955;0,0709087
1270,8597;0,0700111
1271,8240;0,0691177
1272,7882;0,0682362
1273,7524;0,067373
1274,7167;0,0665337
1275,6809;0,0657246
1276,6451;0,0649524
1277,6094;0,0642206
1278,5736;0,0635257
1279,5378;0,0628571
1280,5021;0,0622011
1281,4663;0,0615486
1282,4305;0,0609007
1283,3948;0,0602679
1284,3590;0,0596648
1285,3232;0,0591039
1286,2875;0,0585923
1287,2517;0,0581328
1288,2159;0,0577269
1289,1802;0,0573758
1290,1444;0,0570799
1291,1086;0,056838
1292,0729;0,0566484
1293,0371;0,0565117
1294,0013;0,0564333
1294,9656;0,0564216
1295,9298;0,0564842
1296,8940;0,0566238
1297,8583;0,0568375
1298,8225;0,0571199
1299,7867;0,057467
1300,7510;0,0578767
1301,7152;0,0583488
1302,6794;0,0588801
1303,6437;0,0594638
1304,6079;0,0600908
1305,5721;0,0607517
1306,5364;0,0614379
1307,5006;0,0621413
1308,4648;0,0628538
1309,4291;0,0635665
1310,3933;0,0642689
1311,3575;0,0649489
1312,3218;0,065592
1313,2860;0,066182
1314,2502;0,0667014
1315,2145;0,0671314
1316,1787;0,067452
1317,1429;0,0676437
1318,1072;0,0676942
1319,0714;0,0676074
1320,0356;0,0674087
1320,9999;0,06714
1321,9641;0,0668467
1322,9283;0,066566
1323,8926;0,0663207
1324,8568;0,0661193
1325,8210;0,065958
1326,7853;0,0658249
1327,7495;0,0657045
1328,7137;0,0655822
1329,6780;0,0654459
1330,6422;0,0652873
1331,6064;0,0651012
1332,5707;0,0648854
1333,5349;0,0646405
1334,4991;0,0643657
1335,4634;0,0640534
1336,4276;0,0636859
1337,3918;0,0632376
1338,3561;0,0626924
1339,3203;0,0620681
1340,2845;0,0614244
1341,2488;0,0608336
1342,2130;0,060341
1343,1772;0,0599535
1344,1415;0,0596567
1345,1057;0,0594354
1346,0699;0,0592839
1347,0342;0,0592056
1347,9984;0,0592085
1348,9626;0,0592984
1349,9269;0,0594748
1350,8911;0,0597302
1351,8553;0,0600532
1352,8196;0,0604331
1353,7838;0,060864
1354,7480;0,0613431
1355,7123;0,0618671
1356,6765;0,0624283
1357,6407;0,0630166
1358,6050;0,0636238
1359,5692;0,0642456
