TITLE;
DATA TYPE;INFRARED SPECTRUM
ORIGIN;JASCO
OWNER;
DATE;25/02/19
TIME;15:34:12
SPECTROMETER/DATA SYSTEM;
LOCALE;9226
RESOLUTION;
DELTAX;0,964233
XUNITS;1/CM
YUNITS;ABSORBANCE
FIRSTX;  399,1927
LASTX; 4000,6047
NPOINTS;    3736
FIRSTY;     0,21018
MAXY;     0,28643
MINY;     0,01699
XYDATA
399,1927;0,210182
400,1569;0,209425
401,1211;0,20675
402,0854;0,203093
403,0496;0,199333
404,0138;0,196154
404,9781;0,194039
405,9423;0,193187
406,9065;0,193432
407,8708;0,194282
408,8350;0,195142
409,7992;0,195573
410,7635;0,195456
411,7277;0,194982
412,6919;0,194487
413,6562;0,194238
414,6204;0,194343
415,5846;0,194816
416,5489;0,19566
417,5131;0,196882
418,4773;0,198364
419,4416;0,199744
420,4058;0,200627
421,3700;0,200888
422,3343;0,200657
423,2985;0,20013
424,2627;0,199509
425,2270;0,198984
426,1912;0,198717
427,1554;0,198799
428,1197;0,199242
429,0839;0,199999
430,0481;0,200982
431,0124;0,202053
431,9766;0,203024
432,9408;0,203682
433,9051;0,203869
434,8693;0,203562
435,8335;0,202921
436,7978;0,202224
437,7620;0,201724
438,7262;0,201515
439,6905;0,201517
440,6547;0,201561
441,6189;0,201508
442,5832;0,201344
443,5474;0,20116
444,5116;0,201047
445,4759;0,200973
446,4401;0,200777
447,4043;0,200278
448,3686;0,199404
449,3328;0,198245
450,2970;0,197022
451,2613;0,195988
452,2255;0,195307
453,1897;0,195009
454,1540;0,195012
455,1182;0,195183
456,0824;0,195377
457,0467;0,195456
458,0109;0,195327
458,9751;0,194996
459,9394;0,194601
460,9036;0,194347
461,8678;0,194407
462,8321;0,19485
463,7963;0,1956
464,7605;0,196427
465,7248;0,197009
466,6890;0,197075
467,6532;0,19654
468,6175;0,195556
469,5817;0,194442
470,5459;0,19357
471,5102;0,193222
472,4744;0,193457
473,4386;0,194088
474,4029;0,194825
475,3671;0,195464
476,3313;0,19597
477,2956;0,196411
478,2598;0,196851
479,2240;0,197277
480,1883;0,197608
481,1525;0,197764
482,1167;0,197733
483,0810;0,197594
484,0452;0,197469
485,0094;0,19745
485,9737;0,197548
486,9379;0,197715
487,9021;0,197889
488,8664;0,198032
489,8306;0,198125
490,7948;0,198157
491,7591;0,19813
492,7233;0,19808
493,6875;0,198089
494,6518;0,198257
495,6160;0,19865
496,5802;0,19925
497,5445;0,199954
498,5087;0,200606
499,4729;0,201065
500,4372;0,201259
501,4014;0,201234
502,3656;0,201132
503,3299;0,201127
504,2941;0,20134
505,2583;0,201795
506,2226;0,202438
507,1868;0,20318
508,1510;0,203936
509,1153;0,204642
510,0795;0,205259
511,0437;0,205758
512,0080;0,206118
512,9722;0,206347
513,9365;0,206501
514,9007;0,206688
515,8649;0,207038
516,8292;0,207624
517,7934;0,208396
518,7576;0,209176
519,7219;0,209764
520,6861;0,210056
521,6503;0,210086
522,6146;0,209977
523,5788;0,209857
524,5430;0,209812
525,5073;0,209855
526,4715;0,209946
527,4357;0,210025
528,4000;0,210048
529,3642;0,209997
530,3284;0,209862
531,2927;0,209635
532,2569;0,209308
533,2211;0,208881
534,1854;0,208374
535,1496;0,207825
536,1138;0,207292
537,0781;0,206849
538,0423;0,206572
539,0065;0,206519
539,9708;0,206703
540,9350;0,207073
541,8992;0,207525
542,8635;0,207933
543,8277;0,208202
544,7919;0,208297
545,7562;0,208257
546,7204;0,208174
547,6846;0,208144
548,6489;0,208234
549,6131;0,208463
550,5773;0,208806
551,5416;0,209219
552,5058;0,20966
553,4700;0,210109
554,4343;0,210565
555,3985;0,211038
556,3627;0,211517
557,3270;0,211936
558,2912;0,212168
559,2554;0,212059
560,2197;0,211485
561,1839;0,210423
562,1481;0,208974
563,1124;0,207332
564,0766;0,205711
565,0408;0,204266
566,0051;0,203066
566,9693;0,202099
567,9335;0,20132
568,8978;0,200683
569,8620;0,200162
570,8262;0,199747
571,7905;0,199435
572,7547;0,19923
573,7189;0,199131
574,6832;0,19913
575,6474;0,199192
576,6116;0,199253
577,5759;0,199236
578,5401;0,199081
579,5043;0,19878
580,4686;0,198383
581,4328;0,19798
582,3970;0,197661
583,3613;0,197476
584,3255;0,197425
585,2897;0,197468
586,2540;0,197558
587,2182;0,197662
588,1824;0,197768
589,1467;0,197869
590,1109;0,197949
591,0751;0,197974
592,0394;0,197913
593,0036;0,197754
593,9678;0,197518
594,9321;0,197243
595,8963;0,196962
596,8605;0,196679
597,8248;0,196365
598,7890;0,195979
599,7532;0,1955
600,7175;0,194949
601,6817;0,194394
602,6459;0,193917
603,6102;0,193567
604,5744;0,193336
605,5386;0,19315
606,5029;0,192903
607,4671;0,192499
608,4313;0,191893
609,3956;0,191104
610,3598;0,190206
611,3240;0,189301
612,2883;0,188485
613,2525;0,187824
614,2167;0,187335
615,1810;0,186965
616,1452;0,186589
617,1094;0,18604
618,0737;0,185173
619,0379;0,183943
620,0021;0,182428
620,9664;0,18079
621,9306;0,179197
622,8948;0,177769
623,8591;0,176545
624,8233;0,175475
625,7875;0,174539
626,7518;0,173679
627,7160;0,172867
628,6802;0,172096
629,6445;0,17137
630,6087;0,170687
631,5729;0,170039
632,5372;0,169425
633,5014;0,168857
634,4656;0,168356
635,4299;0,167938
636,3941;0,167594
637,3583;0,167294
638,3226;0,166992
639,2868;0,166647
640,2510;0,166235
641,2153;0,165756
642,1795;0,165237
643,1437;0,164722
644,1080;0,164265
645,0722;0,163908
646,0364;0,163665
647,0007;0,163504
647,9649;0,163363
648,9291;0,163175
649,8934;0,162915
650,8576;0,162615
651,8218;0,162353
652,7861;0,162203
653,7503;0,162195
654,7145;0,162301
655,6788;0,162453
656,6430;0,162582
657,6072;0,16266
658,5715;0,162693
659,5357;0,162693
660,4999;0,162641
661,4642;0,162478
662,4284;0,162133
663,3926;0,161559
664,3569;0,160772
665,3211;0,159913
666,2853;0,159258
667,2496;0,15901
668,2138;0,158893
669,1780;0,158344
670,1423;0,157334
671,1065;0,156161
672,0707;0,154877
673,0350;0,153389
673,9992;0,151673
674,9634;0,149816
675,9277;0,147958
676,8919;0,146206
677,8561;0,144592
678,8204;0,143095
679,7846;0,141693
680,7488;0,14039
681,7131;0,139212
682,6773;0,13817
683,6415;0,13725
684,6058;0,136422
685,5700;0,135651
686,5342;0,134909
687,4985;0,134178
688,4627;0,133463
689,4269;0,13278
690,3912;0,132164
691,3554;0,131645
692,3196;0,131224
693,2839;0,130863
694,2481;0,130505
695,2123;0,130096
696,1766;0,12962
697,1408;0,129098
698,1050;0,12857
699,0693;0,128067
700,0335;0,127589
700,9977;0,127111
701,9620;0,126601
702,9262;0,126048
703,8904;0,125461
704,8547;0,124879
705,8189;0,124336
706,7831;0,123838
707,7474;0,123357
708,7116;0,122852
709,6758;0,122296
710,6401;0,121691
711,6043;0,121068
712,5685;0,12046
713,5328;0,119886
714,4970;0,119336
715,4612;0,118306
716,4255;0,117819
717,3897;0,117309
718,3539;0,116728
719,3182;0,116024
720,2824;0,115166
721,2466;0,114172
722,2109;0,113109
723,1751;0,112069
724,1393;0,11113
725,1036;0,110325
726,0678;0,109638
727,0320;0,109009
727,9963;0,108362
728,9605;0,107641
729,9247;0,106839
730,8890;0,106006
731,8532;0,105222
732,8174;0,104557
733,7817;0,104034
734,7459;0,10362
735,7101;0,103244
736,6744;0,102839
737,6386;0,10238
738,6028;0,101886
739,5671;0,101401
740,5313;0,100959
741,4955;0,100564
742,4598;0,100185
743,4240;0,0997838
744,3882;0,0993286
745,3525;0,0988142
746,3167;0,098258
747,2809;0,0976872
748,2452;0,0971236
749,2094;0,0965736
750,1736;0,0960275
751,1379;0,095468
752,1021;0,0948832
753,0663;0,0942767
754,0306;0,0936694
754,9948;0,0930908
755,9590;0,0925643
756,9233;0,0920961
757,8875;0,0916724
758,8517;0,0912688
759,8160;0,090864
760,7802;0,0904509
761,7444;0,0900378
762,7087;0,0896402
763,6729;0,0892692
764,6371;0,0889232
765,6014;0,0885878
766,5656;0,088244
767,5298;0,0878791
768,4941;0,0874944
769,4583;0,087105
770,4225;0,0867337
771,3868;0,0864007
772,3510;0,0861155
773,3152;0,0858724
774,2795;0,0856525
775,2437;0,0854293
776,2079;0,0851772
777,1722;0,0848816
778,1364;0,0845441
779,1006;0,0841833
780,0649;0,0838275
781,0291;0,0835028
781,9933;0,0832217
782,9576;0,0829779
783,9218;0,082751
784,8860;0,0825171
785,8503;0,0822617
786,8145;0,0819858
787,7787;0,0817034
788,7430;0,0814328
789,7072;0,0811873
790,6714;0,0809705
791,6357;0,0807771
792,5999;0,0805978
793,5641;0,0804229
794,5284;0,080245
795,4926;0,0800603
796,4568;0,0798692
797,4211;0,0796779
798,3853;0,0794977
799,3495;0,079341
800,3138;0,0792144
801,2780;0,0791138
802,2422;0,079024
803,2065;0,0789265
804,1707;0,0788085
805,1349;0,0786707
806,0992;0,0785248
807,0634;0,078386
808,0276;0,0782628
808,9919;0,0781529
809,9561;0,0780459
810,9203;0,0779321
811,8846;0,077809
812,8488;0,0776826
813,8130;0,0775628
814,7773;0,0774551
815,7415;0,0773565
816,7057;0,0772568
817,6700;0,0771438
818,6342;0,077011
819,5984;0,0768605
820,5627;0,0767029
821,5269;0,0765519
822,4911;0,0764192
823,4554;0,0763097
824,4196;0,0762202
825,3839;0,0761411
826,3481;0,0760603
827,3123;0,0759685
828,2766;0,0758628
829,2408;0,0757476
830,2050;0,0756319
831,1693;0,0755241
832,1335;0,0754262
833,0977;0,0753313
834,0620;0,075225
835,0262;0,0750902
835,9904;0,0749131
836,9547;0,074689
837,9189;0,074424
838,8831;0,074134
839,8474;0,0738406
840,8116;0,0735666
841,7758;0,0733307
842,7401;0,0731448
843,7043;0,0730127
844,6685;0,0729307
845,6328;0,0728891
846,5970;0,072875
847,5612;0,0728742
848,5255;0,0728748
849,4897;0,0728688
850,4539;0,0728532
851,4182;0,0728281
852,3824;0,0727937
853,3466;0,0727476
854,3109;0,0726852
855,2751;0,0726041
856,2393;0,0725088
857,2036;0,0724128
858,1678;0,0723351
859,1320;0,0722906
860,0963;0,0722819
861,0605;0,0722972
862,0247;0,0723173
862,9890;0,0723292
863,9532;0,0723357
864,9174;0,0723567
865,8817;0,072419
866,8459;0,0725413
867,8101;0,0727247
868,7744;0,0729531
869,7386;0,0732031
870,7028;0,0734546
871,6671;0,0736962
872,6313;0,073923
873,5955;0,0741296
874,5598;0,0743078
875,5240;0,0744502
876,4882;0,0745583
877,4525;0,0746487
878,4167;0,0747515
879,3809;0,0749019
880,3452;0,0751288
881,3094;0,0754484
882,2736;0,0758642
883,2379;0,0763727
884,2021;0,076969
885,1663;0,0776483
886,1306;0,0784029
887,0948;0,0792193
888,0590;0,0800779
889,0233;0,0809594
889,9875;0,0818514
890,9517;0,0827494
891,9160;0,0836506
892,8802;0,0845405
893,8444;0,0853831
894,8087;0,0861218
895,7729;0,0866926
896,7371;0,0870432
897,7014;0,0871461
898,6656;0,0870008
899,6298;0,0866266
900,5941;0,0860538
901,5583;0,0853225
902,5225;0,0844852
903,4868;0,0836075
904,4510;0,0827591
905,4152;0,0819971
906,3795;0,0813508
907,3437;0,0808179
908,3079;0,0803755
909,2722;0,0799996
910,2364;0,0796791
911,2007;0,079419
912,1649;0,0792308
913,1292;0,0791222
914,0934;0,0790909
915,0576;0,0791272
916,0219;0,0792211
916,9861;0,0793668
917,9503;0,0795623
918,9146;0,0798061
919,8788;0,0800924
920,8430;0,0804098
921,8073;0,0807424
922,7715;0,0810727
923,7357;0,0813853
924,7000;0,0816706
925,6642;0,0819269
926,6284;0,0821621
927,5927;0,0823911
928,5569;0,0826314
929,5211;0,0828969
930,4854;0,083193
931,4496;0,0835158
932,4138;0,0838552
933,3781;0,0842017
934,3423;0,0845531
935,3065;0,084918
936,2708;0,0853131
937,2350;0,0857567
938,1992;0,08626
939,1635;0,0868235
940,1277;0,0874401
941,0919;0,0881023
942,0562;0,0888101
943,0204;0,0895732
943,9846;0,0904061
944,9489;0,0913198
945,9131;0,0923148
946,8773;0,0933809
947,8416;0,094502
948,8058;0,0956645
949,7700;0,0968639
950,7343;0,0981079
951,6985;0,0994153
952,6627;0,10081
953,6270;0,102316
954,5912;0,103943
955,5554;0,10569
956,5197;0,107534
957,4839;0,109445
958,4481;0,11139
959,4124;0,113341
960,3766;0,115284
961,3408;0,117215
962,3051;0,119136
963,2693;0,121057
964,2335;0,122987
965,1978;0,124942
966,1620;0,126935
967,1262;0,128983
968,0905;0,131098
969,0547;0,133299
970,0189;0,135608
970,9832;0,138059
971,9474;0,140696
972,9116;0,143563
973,8759;0,146696
974,8401;0,150114
975,8043;0,153819
976,7686;0,1578
977,7328;0,162031
978,6970;0,166476
979,6613;0,171072
980,6255;0,175725
981,5897;0,180311
982,5540;0,184689
983,5182;0,188733
984,4824;0,192363
985,4467;0,195557
986,4109;0,198354
987,3751;0,200817
988,3394;0,20301
989,3036;0,204976
990,2678;0,206732
991,2321;0,208283
992,1963;0,209642
993,1605;0,210832
994,1248;0,211894
995,0890;0,212879
996,0532;0,213838
997,0175;0,214813
997,9817;0,215834
998,9459;0,216914
999,9102;0,218051
1000,8744;0,219239
1001,8386;0,220482
1002,8029;0,221802
1003,7671;0,223246
1004,7313;0,224871
1005,6956;0,226733
1006,6598;0,228868
1007,6240;0,231288
1008,5883;0,23398
1009,5525;0,236917
1010,5167;0,240064
1011,4810;0,243373
1012,4452;0,24679
1013,4094;0,250246
1014,3737;0,253667
1015,3379;0,25698
1016,3021;0,260125
1017,2664;0,263061
1018,2306;0,265775
1019,1948;0,268271
1020,1591;0,270571
1021,1233;0,272704
1022,0875;0,274699
1023,0518;0,276577
1024,0160;0,27835
1024,9802;0,280014
1025,9445;0,281558
1026,9087;0,282961
1027,8729;0,284198
1028,8372;0,285233
1029,8014;0,286005
1030,7656;0,28643
1031,7299;0,286404
1032,6941;0,285827
1033,6583;0,284644
1034,6226;0,282874
1035,5868;0,280626
1036,5510;0,278084
1037,5153;0,275465
1038,4795;0,272974
1039,4437;0,270769
1040,4080;0,268942
1041,3722;0,267523
1042,3364;0,26649
1043,3007;0,265781
1044,2649;0,265306
1045,2291;0,264961
1046,1934;0,264637
1047,1576;0,264244
1048,1218;0,263712
1049,0861;0,262998
1050,0503;0,262068
1051,0145;0,260894
1051,9788;0,25945
1052,9430;0,257721
1053,9072;0,255708
1054,8715;0,253431
1055,8357;0,250907
1056,7999;0,248138
1057,7642;0,245095
1058,7284;0,241734
1059,6926;0,238023
1060,6569;0,233979
1061,6211;0,229683
1062,5853;0,225272
1063,5496;0,220901
1064,5138;0,216708
1065,4780;0,212787
1066,4423;0,209175
1067,4065;0,205872
1068,3707;0,202847
1069,3350;0,200059
1070,2992;0,197454
1071,2634;0,194971
1072,2277;0,192545
1073,1919;0,190112
1074,1561;0,187632
1075,1204;0,185089
1076,0846;0,182502
1077,0488;0,179909
1078,0131;0,177363
1078,9773;0,174917
1079,9415;0,17262
1080,9058;0,170511
1081,8700;0,168616
1082,8342;0,166949
1083,7985;0,165508
1084,7627;0,164276
1085,7269;0,163232
1086,6912;0,162349
1087,6554;0,161599
1088,6196;0,160958
1089,5839;0,160404
1090,5481;0,15992
1091,5123;0,159502
1092,4766;0,159159
1093,4408;0,158912
1094,4050;0,158779
1095,3693;0,158769
1096,3335;0,158873
1097,2977;0,159065
1098,2620;0,159313
1099,2262;0,159584
1100,1904;0,159852
1101,1547;0,160093
1102,1189;0,160282
1103,0831;0,160385
1104,0474;0,160371
1105,0116;0,160221
1105,9758;0,159933
1106,9401;0,159524
1107,9043;0,159012
1108,8685;0,158397
1109,8328;0,157656
1110,7970;0,156744
1111,7612;0,155619
1112,7255;0,154267
1113,6897;0,152724
1114,6539;0,151064
1115,6182;0,149386
1116,5824;0,147777
1117,5466;0,146293
1118,5109;0,144935
1119,4751;0,143662
1120,4393;0,142394
1121,4036;0,14104
1122,3678;0,139515
1123,3320;0,137762
1124,2963;0,135752
1125,2605;0,133488
1126,2247;0,130998
1127,1890;0,128327
1128,1532;0,125531
1129,1174;0,122669
1130,0817;0,119799
1131,0459;0,116971
1132,0101;0,114224
1132,9744;0,111585
1133,9386;0,109085
1134,9028;0,106762
1135,8671;0,104667
1136,8313;0,102853
1137,7955;0,101365
1138,7598;0,100221
1139,7240;0,0994085
1140,6882;0,0988904
1141,6525;0,0986145
1142,6167;0,0985292
1143,5809;0,0985926
1144,5452;0,0987759
1145,5094;0,099063
1146,4736;0,0994466
1147,4379;0,0999247
1148,4021;0,100496
1149,3663;0,101153
1150,3306;0,101883
1151,2948;0,102661
1152,2590;0,103456
1153,2233;0,104228
1154,1875;0,104934
1155,1517;0,105523
1156,1160;0,105937
1157,0802;0,106114
1158,0444;0,105983
1159,0087;0,105482
1159,9729;0,104555
1160,9371;0,103165
1161,9014;0,101296
1162,8656;0,0989615
1163,8298;0,0962074
1164,7941;0,0931133
1165,7583;0,0897891
1166,7225;0,086362
1167,6868;0,0829593
1168,6510;0,0796894
1169,6152;0,0766296
1170,5795;0,0738247
1171,5437;0,0712943
1172,5079;0,0690434
1173,4722;0,0670693
1174,4364;0,0653623
1175,4006;0,0639035
1176,3649;0,0626642
1177,3291;0,0616108
1178,2933;0,0607122
1179,2576;0,0599467
1180,2218;0,0593022
1181,1860;0,0587718
1182,1503;0,0583491
1183,1145;0,058025
1184,0787;0,0577894
1185,0430;0,0576346
1186,0072;0,057557
1186,9714;0,0575573
1187,9357;0,0576395
1188,8999;0,0578094
1189,8641;0,0580738
1190,8284;0,0584393
1191,7926;0,0589101
1192,7568;0,0594849
1193,7211;0,0601555
1194,6853;0,0609074
1195,6495;0,0617219
1196,6138;0,0625796
1197,5780;0,0634629
1198,5422;0,0643578
1199,5065;0,0651677
1200,4707;0,06607
1201,4349;0,0669638
1202,3992;0,0678438
1203,3634;0,0687024
1204,3276;0,0695307
1205,2919;0,0703229
1206,2561;0,0710805
1207,2203;0,0718168
1208,1846;0,0725556
1209,1488;0,0733273
1210,1130;0,0741617
1211,0773;0,0750816
1212,0415;0,0760983
1213,0057;0,0772099
1213,9700;0,0784026
1214,9342;0,0796538
1215,8984;0,080938
1216,8627;0,0822305
1217,8269;0,0835118
1218,7911;0,0847701
1219,7554;0,0859997
1220,7196;0,0871974
1221,6838;0,0883588
1222,6481;0,0894755
1223,6123;0,0905361
1224,5765;0,0915295
1225,5408;0,0924488
1226,5050;0,0932948
1227,4692;0,0940752
1228,4335;0,0948006
1229,3977;0,0954784
1230,3619;0,096109
1231,3262;0,0966849
1232,2904;0,0971939
1233,2546;0,0976254
1234,2189;0,0979743
1235,1831;0,0982435
1236,1473;0,0984421
1237,1116;0,0985824
1238,0758;0,0986763
1239,0400;0,0987328
1240,0043;0,0987559
1240,9685;0,0987434
1241,9327;0,098686
1242,8970;0,0985703
1243,8612;0,0983825
1244,8254;0,0981141
1245,7897;0,097766
1246,7539;0,0973481
1247,7181;0,0968761
1248,6824;0,0963666
1249,6466;0,0958334
1250,6108;0,0952872
1251,5751;0,0947364
1252,5393;0,0941894
1253,5035;0,0936531
1254,4678;0,0931304
1255,4320;0,0926168
1256,3962;0,0921001
1257,3605;0,0915636
1258,3247;0,0909923
1259,2889;0,0903775
1260,2532;0,0897184
1261,2174;0,0890187
1262,1816;0,0882813
1263,1459;0,0875057
1264,1101;0,0866894
1265,0743;0,0858307
1266,0386;0,084931
1267,0028;0,0839934
1267,9670;0,0830207
1268,9313;0,0820132
1269,8955;0,0809712
1270,8597;0,0798982
1271,8240;0,0788032
1272,7882;0,0777008
1273,7524;0,0766085
1274,7167;0,075544
1275,6809;0,0745238
1276,6451;0,0735609
1277,6094;0,0726612
1278,5736;0,0718201
1279,5378;0,0710227
1280,5021;0,0702489
1281,4663;0,0694837
1282,4305;0,0687249
1283,3948;0,0679844
1284,3590;0,0672814
1285,3232;0,0666341
1286,2875;0,0660531
1287,2517;0,0655415
1288,2159;0,0650984
1289,1802;0,0647226
1290,1444;0,0644137
1291,1086;0,0641711
1292,0729;0,0639927
1293,0371;0,0638768
1294,0013;0,0638245
1294,9656;0,0638411
1295,9298;0,0639349
1296,8940;0,0641133
1297,8583;0,0643799
1298,8225;0,0647325
1299,7867;0,0651642
1300,7510;0,0656647
1301,7152;0,0662243
1302,6794;0,0668341
1303,6437;0,0674882
1304,6079;0,0681842
1305,5721;0,06892
1306,5364;0,0696912
1307,5006;0,0704885
1308,4648;0,0712997
1309,4291;0,0721121
1310,3933;0,072915
1311,3575;0,0736986
1312,3218;0,0744505
1313,2860;0,0751516
1314,2502;0,0757756
1315,2145;0,0762906
1316,1787;0,0766638
1317,1429;0,076869
1318,1072;0,0768969
1319,0714;0,0767647
1320,0356;0,0765156
1320,9999;0,0762061
1321,9641;0,0758872
1322,9283;0,0755916
1323,8926;0,0753328
1324,8568;0,0751104
1325,8210;0,0749173
1326,7853;0,0747436
1327,7495;0,0745783
1328,7137;0,0744099
1329,6780;0,074226
1330,6422;0,0740156
1331,6064;0,0737716
1332,5707;0,073493
1333,5349;0,0731842
1334,4991;0,0728474
1335,4634;0,0724753
1336,4276;0,0720461
1337,3918;0,0715281
1338,3561;0,0709004
1339,3203;0,0701816
1340,2845;0,0694373
1341,2488;0,0687478
1342,2130;0,0681644
1343,1772;0,067698
1344,1415;0,0673371
1345,1057;0,0670682
1346,0699;0,0668857
1347,0342;0,06679
1347,9984;0,0667848
1348,9626;0,0668734
1349,9269;0,0670564
1350,8911;0,0673297
1351,8553;0,0676845
1352,8196;0,0681095
1353,7838;0,0685945
1354,7480;0,0691325
1355,7123;0,069719
1356,6765;0,070349
1357,6407;0,0710155
1358,6050;0,0717104
1359,5692;0,0724244
1360,5334;0,0731397
1361,4977;0,0738237
