TITLE;
DATA TYPE;INFRARED SPECTRUM
ORIGIN;JASCO
OWNER;
DATE;25/02/19
TIME;15:20:40
SPECTROMETER/DATA SYSTEM;
LOCALE;9226
RESOLUTION;
DELTAX;0,964233
XUNITS;1/CM
YUNITS;ABSORBANCE
FIRSTX;  399,1927
LASTX; 4000,6047
NPOINTS;    3736
FIRSTY;     0,18026
MAXY;     0,26590
MINY;     0,01398
XYDATA
399,1927;0,180257
400,1569;0,17816
401,1211;0,176857
402,0854;0,176141
403,0496;0,175746
404,0138;0,175502
404,9781;0,175326
405,9423;0,175165
406,9065;0,174951
407,8708;0,174627
408,8350;0,17421
409,7992;0,17384
410,7635;0,173736
411,7277;0,174044
412,6919;0,174695
413,6562;0,175419
414,6204;0,1759
415,5846;0,17595
416,5489;0,175619
417,5131;0,175291
418,4773;0,175598
419,4416;0,176927
420,4058;0,17896
421,3700;0,181054
422,3343;0,182828
423,2985;0,184218
424,2627;0,185257
425,2270;0,185958
426,1912;0,186307
427,1554;0,186326
428,1197;0,186108
429,0839;0,185798
430,0481;0,185529
431,0124;0,185367
431,9766;0,18531
432,9408;0,185334
433,9051;0,185465
434,8693;0,185782
435,8335;0,186343
436,7978;0,187077
437,7620;0,187754
438,7262;0,188078
439,6905;0,187831
440,6547;0,18699
441,6189;0,185771
442,5832;0,184564
443,5474;0,183775
444,5116;0,183627
445,4759;0,184065
446,4401;0,184824
447,4043;0,185563
448,3686;0,185978
449,3328;0,185862
450,2970;0,185175
451,2613;0,184085
452,2255;0,182941
453,1897;0,182144
454,1540;0,181964
455,1182;0,182413
456,0824;0,183209
457,0467;0,183868
458,0109;0,183961
458,9751;0,183415
459,9394;0,182543
460,9036;0,181757
461,8678;0,181269
462,8321;0,181036
463,7963;0,180865
464,7605;0,180581
465,7248;0,180145
466,6890;0,179683
467,6532;0,179395
468,6175;0,179422
469,5817;0,179773
470,5459;0,180337
471,5102;0,18094
472,4744;0,181431
473,4386;0,181741
474,4029;0,181874
475,3671;0,181874
476,3313;0,18178
477,2956;0,181632
478,2598;0,181476
479,2240;0,181369
480,1883;0,181363
481,1525;0,18149
482,1167;0,181763
483,0810;0,182183
484,0452;0,18274
485,0094;0,183398
485,9737;0,18409
486,9379;0,184713
487,9021;0,18516
488,8664;0,185348
489,8306;0,185245
490,7948;0,184902
491,7591;0,184444
492,7233;0,184038
493,6875;0,183826
494,6518;0,183873
495,6160;0,184164
496,5802;0,184639
497,5445;0,185231
498,5087;0,185886
499,4729;0,186557
500,4372;0,187191
501,4014;0,187723
502,3656;0,188105
503,3299;0,188324
504,2941;0,188415
505,2583;0,188441
506,2226;0,188466
507,1868;0,188553
508,1510;0,188766
509,1153;0,189159
510,0795;0,189765
511,0437;0,190557
512,0080;0,191439
512,9722;0,192272
513,9365;0,192922
514,9007;0,193316
515,8649;0,193477
516,8292;0,193514
517,7934;0,193567
518,7576;0,193727
519,7219;0,193995
520,6861;0,194306
521,6503;0,194588
522,6146;0,194804
523,5788;0,194954
524,5430;0,195065
525,5073;0,195167
526,4715;0,195276
527,4357;0,195373
528,4000;0,19541
529,3642;0,195335
530,3284;0,195127
531,2927;0,194811
532,2569;0,194455
533,2211;0,194132
534,1854;0,193868
535,1496;0,193623
536,1138;0,193325
537,0781;0,192946
538,0423;0,192549
539,0065;0,192268
539,9708;0,192228
540,9350;0,192454
541,8992;0,192856
542,8635;0,193282
543,8277;0,193622
544,7919;0,193873
545,7562;0,194127
546,7204;0,194488
547,6846;0,194985
548,6489;0,19554
549,6131;0,196025
550,5773;0,196345
551,5416;0,196508
552,5058;0,196619
553,4700;0,19683
554,4343;0,197266
555,3985;0,197962
556,3627;0,198828
557,3270;0,199653
558,2912;0,200161
559,2554;0,20011
560,2197;0,199395
561,1839;0,198107
562,1481;0,196512
563,1124;0,194934
564,0766;0,19362
565,0408;0,192651
566,0051;0,191949
566,9693;0,191366
567,9335;0,190782
568,8978;0,190164
569,8620;0,189555
570,8262;0,189012
571,7905;0,188564
572,7547;0,188207
573,7189;0,187931
574,6832;0,187735
575,6474;0,187625
576,6116;0,187589
577,5759;0,187593
578,5401;0,187589
579,5043;0,187546
580,4686;0,187458
581,4328;0,187336
582,3970;0,187189
583,3613;0,187009
584,3255;0,186789
585,2897;0,186542
586,2540;0,186313
587,2182;0,18616
588,1824;0,186124
589,1467;0,186207
590,1109;0,186362
591,0751;0,186527
592,0394;0,186648
593,0036;0,186706
593,9678;0,186708
594,9321;0,186664
595,8963;0,186566
596,8605;0,186392
597,8248;0,186116
598,7890;0,185736
599,7532;0,185273
600,7175;0,184778
601,6817;0,184301
602,6459;0,183882
603,6102;0,183539
604,5744;0,183262
605,5386;0,183016
606,5029;0,182745
607,4671;0,182383
608,4313;0,181874
609,3956;0,181197
610,3598;0,180385
611,3240;0,179513
612,2883;0,178678
613,2525;0,177951
614,2167;0,177351
615,1810;0,176824
616,1452;0,176262
617,1094;0,175541
618,0737;0,174574
619,0379;0,173359
620,0021;0,171971
620,9664;0,170523
621,9306;0,169124
622,8948;0,167846
623,8591;0,166719
624,8233;0,16572
625,7875;0,164857
626,7518;0,164101
627,7160;0,16343
628,6802;0,162815
629,6445;0,162225
630,6087;0,161625
631,5729;0,160996
632,5372;0,160347
633,5014;0,159708
634,4656;0,159114
635,4299;0,158581
636,3941;0,158095
637,3583;0,157631
638,3226;0,157185
639,2868;0,156776
640,2510;0,156439
641,2153;0,156183
642,1795;0,155977
643,1437;0,155756
644,1080;0,155464
645,0722;0,155093
646,0364;0,154686
647,0007;0,154314
647,9649;0,154029
648,9291;0,153835
649,8934;0,153696
650,8576;0,153569
651,8218;0,153435
652,7861;0,153314
653,7503;0,153246
654,7145;0,153267
655,6788;0,153392
656,6430;0,1536
657,6072;0,153844
658,5715;0,154058
659,5357;0,154164
660,4999;0,154097
661,4642;0,153837
662,4284;0,153414
663,3926;0,15289
664,3569;0,152343
665,3211;0,151891
666,2853;0,151675
667,2496;0,151674
668,2138;0,151447
669,1780;0,150511
670,1423;0,14908
671,1065;0,147611
672,0707;0,146208
673,0350;0,144767
673,9992;0,143213
674,9634;0,141561
675,9277;0,139886
676,8919;0,138254
677,8561;0,136691
678,8204;0,135185
679,7846;0,13373
680,7488;0,132348
681,7131;0,131084
682,6773;0,129978
683,6415;0,129042
684,6058;0,128266
685,5700;0,12762
686,5342;0,12706
687,4985;0,126534
688,4627;0,125995
689,4269;0,125413
690,3912;0,124791
691,3554;0,124159
692,3196;0,123558
693,2839;0,123009
694,2481;0,122513
695,2123;0,122052
696,1766;0,121607
697,1408;0,121172
698,1050;0,12075
699,0693;0,120342
700,0335;0,119934
700,9977;0,119494
701,9620;0,118988
702,9262;0,118399
703,8904;0,117742
704,8547;0,117071
705,8189;0,116448
706,7831;0,115907
707,7474;0,115435
708,7116;0,114977
709,6758;0,114472
710,6401;0,113882
711,6043;0,113209
712,5685;0,112484
713,5328;0,111755
714,4970;0,111063
715,4612;0,110102
716,4255;0,109605
717,3897;0,109175
718,3539;0,108738
719,3182;0,108196
720,2824;0,107465
721,2466;0,106527
722,2109;0,105441
723,1751;0,104317
724,1393;0,103258
725,1036;0,102316
726,0678;0,101487
727,0320;0,10073
727,9963;0,0999982
728,9605;0,0992649
729,9247;0,098534
730,8890;0,0978292
731,8532;0,0971772
732,8174;0,0965945
733,7817;0,0960833
734,7459;0,0956334
735,7101;0,0952258
736,6744;0,094837
737,6386;0,0944435
738,6028;0,0940278
739,5671;0,093584
740,5313;0,0931184
741,4955;0,0926438
742,4598;0,0921703
743,4240;0,091699
744,3882;0,0912241
745,3525;0,0907403
746,3167;0,0902498
747,2809;0,089761
748,2452;0,0892796
749,2094;0,0887993
750,1736;0,0883016
751,1379;0,0877674
752,1021;0,0871926
753,0663;0,0865961
754,0306;0,0860125
754,9948;0,085473
755,9590;0,0849881
756,9233;0,0845437
757,8875;0,0841138
758,8517;0,0836787
759,8160;0,0832375
760,7802;0,0828052
761,7444;0,0823985
762,7087;0,0820222
763,6729;0,0816639
764,6371;0,0813022
765,6014;0,0809197
766,5656;0,080513
767,5298;0,0800927
768,4941;0,0796765
769,4583;0,0792794
770,4225;0,0789093
771,3868;0,0785673
772,3510;0,0782512
773,3152;0,0779567
774,2795;0,0776769
775,2437;0,0774019
776,2079;0,0771213
777,1722;0,0768299
778,1364;0,0765317
779,1006;0,0762395
780,0649;0,0759674
781,0291;0,0757216
781,9933;0,0754962
782,9576;0,0752753
783,9218;0,0750427
784,8860;0,0747893
785,8503;0,0745178
786,8145;0,0742391
787,7787;0,073967
788,7430;0,0737128
789,7072;0,0734829
790,6714;0,0732771
791,6357;0,0730888
792,5999;0,0729064
793,5641;0,0727177
794,5284;0,0725162
795,4926;0,0723054
796,4568;0,0720973
797,4211;0,071904
798,3853;0,0717291
799,3495;0,0715662
800,3138;0,0714062
801,2780;0,0712484
802,2422;0,0711044
803,2065;0,0709894
804,1707;0,0709065
805,1349;0,0708371
806,0992;0,0707475
807,0634;0,0706104
808,0276;0,0704245
808,9919;0,0702175
809,9561;0,0700291
810,9203;0,0698857
811,8846;0,0697857
812,8488;0,0697056
813,8130;0,0696201
814,7773;0,0695204
815,7415;0,0694177
816,7057;0,069332
817,6700;0,0692753
818,6342;0,069244
819,5984;0,0692214
820,5627;0,0691878
821,5269;0,0691285
822,4911;0,0690376
823,4554;0,0689184
824,4196;0,0687819
825,3839;0,0686444
826,3481;0,0685225
827,3123;0,068425
828,2766;0,0683479
829,2408;0,0682759
830,2050;0,0681898
831,1693;0,0680772
832,1335;0,0679363
833,0977;0,0677729
834,0620;0,0675915
835,0262;0,0673909
835,9904;0,0671653
836,9547;0,0669119
837,9189;0,0666368
838,8831;0,0663556
839,8474;0,066087
840,8116;0,0658457
841,7758;0,0656372
842,7401;0,0654591
843,7043;0,0653041
844,6685;0,0651651
845,6328;0,0650365
846,5970;0,0649152
847,5612;0,0647993
848,5255;0,0646872
849,4897;0,064578
850,4539;0,0644719
851,4182;0,0643714
852,3824;0,0642816
853,3466;0,0642078
854,3109;0,064152
855,2751;0,0641084
856,2393;0,0640631
857,2036;0,0639985
858,1678;0,0639035
859,1320;0,0637818
860,0963;0,0636548
861,0605;0,0635538
862,0247;0,063507
862,9890;0,0635275
863,9532;0,0636097
864,9174;0,0637354
865,8817;0,0638859
866,8459;0,064051
867,8101;0,064231
868,7744;0,0644309
869,7386;0,0646526
870,7028;0,0648901
871,6671;0,0651303
872,6313;0,0653572
873,5955;0,0655579
874,5598;0,0657263
875,5240;0,0658656
876,4882;0,065989
877,4525;0,0661177
878,4167;0,0662777
879,3809;0,0664923
880,3452;0,0667768
881,3094;0,067135
882,2736;0,067563
883,2379;0,0680561
884,2021;0,0686166
885,1663;0,0692556
886,1306;0,0699875
887,0948;0,0708206
888,0590;0,0717485
889,0233;0,0727472
889,9875;0,0737803
890,9517;0,0748068
891,9160;0,0757887
892,8802;0,0766935
893,8444;0,0774926
894,8087;0,0781574
895,7729;0,0786581
896,7371;0,0789655
897,7014;0,0790559
898,6656;0,0789173
899,6298;0,0785546
900,5941;0,0779923
901,5583;0,0772735
902,5225;0,0764553
903,4868;0,0755993
904,4510;0,0747614
905,4152;0,0739822
906,3795;0,0732833
907,3437;0,0726688
908,3079;0,072133
909,2722;0,0716672
910,2364;0,0712663
911,2007;0,0709296
912,1649;0,0706597
913,1292;0,0704598
914,0934;0,0703322
915,0576;0,0702774
916,0219;0,0702939
916,9861;0,0703779
917,9503;0,0705226
918,9146;0,0707171
919,8788;0,0709472
920,8430;0,0711971
921,8073;0,0714529
922,7715;0,071706
923,7357;0,0719544
924,7000;0,0722001
925,6642;0,0724442
926,6284;0,0726835
927,5927;0,0729111
928,5569;0,0731221
929,5211;0,0733204
930,4854;0,0735205
931,4496;0,0737436
932,4138;0,0740069
933,3781;0,0743171
934,3423;0,0746697
935,3065;0,0750563
936,2708;0,0754735
937,2350;0,075927
938,1992;0,0764277
939,1635;0,0769855
940,1277;0,0776048
941,0919;0,0782854
942,0562;0,0790278
943,0204;0,0798362
943,9846;0,0807179
944,9489;0,0816796
945,9131;0,0827231
946,8773;0,0838443
947,8416;0,0850354
948,8058;0,0862887
949,7700;0,0875996
950,7343;0,088969
951,6985;0,0904049
952,6627;0,0919202
953,6270;0,0935288
954,5912;0,0952386
955,5554;0,0970452
956,5197;0,0989309
957,4839;0,10087
958,4481;0,102839
959,4124;0,104817
960,3766;0,106796
961,3408;0,108767
962,3051;0,110724
963,2693;0,112664
964,2335;0,114592
965,1978;0,116525
966,1620;0,11849
967,1262;0,120515
968,0905;0,122617
969,0547;0,1248
970,0189;0,127063
970,9832;0,129414
971,9474;0,131885
972,9116;0,134533
973,8759;0,137427
974,8401;0,140625
975,8043;0,144155
976,7686;0,148006
977,7328;0,152129
978,6970;0,156445
979,6613;0,160855
980,6255;0,165249
981,5897;0,169508
982,5540;0,173519
983,5182;0,177184
984,4824;0,180448
985,4467;0,183301
986,4109;0,185779
987,3751;0,187945
988,3394;0,189866
989,3036;0,191592
990,2678;0,193155
991,2321;0,194572
992,1963;0,195852
993,1605;0,197011
994,1248;0,19807
995,0890;0,199057
996,0532;0,200003
997,0175;0,200939
997,9817;0,201887
998,9459;0,202861
999,9102;0,20387
1000,8744;0,204922
1001,8386;0,206032
1002,8029;0,20723
1003,7671;0,208552
1004,7313;0,210037
1005,6956;0,21172
1006,6598;0,213626
1007,6240;0,215772
1008,5883;0,218166
1009,5525;0,220802
1010,5167;0,22366
1011,4810;0,226699
1012,4452;0,229857
1013,4094;0,233061
1014,3737;0,236234
1015,3379;0,239305
1016,3021;0,242217
1017,2664;0,244933
1018,2306;0,24743
1019,1948;0,249707
1020,1591;0,251779
1021,1233;0,253676
1022,0875;0,255436
1023,0518;0,257095
1024,0160;0,258677
1024,9802;0,260189
1025,9445;0,261614
1026,9087;0,262923
1027,8729;0,264068
1028,8372;0,264994
1029,8014;0,265631
1030,7656;0,265899
1031,7299;0,265716
1032,6941;0,265017
1033,6583;0,263771
1034,6226;0,262006
1035,5868;0,259817
1036,5510;0,257356
1037,5153;0,254814
1038,4795;0,25238
1039,4437;0,25022
1040,4080;0,248443
1041,3722;0,247094
1042,3364;0,246154
1043,3007;0,24555
1044,2649;0,245175
1045,2291;0,24491
1046,1934;0,244642
1047,1576;0,244276
1048,1218;0,243743
1049,0861;0,242995
1050,0503;0,242003
1051,0145;0,240757
1051,9788;0,239261
1052,9430;0,237532
1053,9072;0,23559
1054,8715;0,233449
1055,8357;0,2311
1056,7999;0,228509
1057,7642;0,22562
1058,7284;0,222386
1059,6926;0,218796
1060,6569;0,214896
1061,6211;0,210791
1062,5853;0,206619
1063,5496;0,202524
1064,5138;0,198619
1065,4780;0,194978
1066,4423;0,19163
1067,4065;0,188574
1068,3707;0,185788
1069,3350;0,183237
1070,2992;0,180876
1071,2634;0,178652
1072,2277;0,176505
1073,1919;0,174374
1074,1561;0,172201
1075,1204;0,169946
1076,0846;0,167593
1077,0488;0,165158
1078,0131;0,162695
1078,9773;0,160285
1079,9415;0,158017
1080,9058;0,155967
1081,8700;0,154177
1082,8342;0,152655
1083,7985;0,151376
1084,7627;0,150301
1085,7269;0,14939
1086,6912;0,14861
1087,6554;0,147936
1088,6196;0,147346
1089,5839;0,146827
1090,5481;0,146371
1091,5123;0,145984
1092,4766;0,145679
1093,4408;0,145473
1094,4050;0,145375
1095,3693;0,145378
1096,3335;0,145461
1097,2977;0,145593
1098,2620;0,145748
1099,2262;0,145909
1100,1904;0,146066
1101,1547;0,146208
1102,1189;0,146316
1103,0831;0,146359
1104,0474;0,146307
1105,0116;0,14614
1105,9758;0,145856
1106,9401;0,14547
1107,9043;0,144999
1108,8685;0,14444
1109,8328;0,143761
1110,7970;0,142908
1111,7612;0,141831
1112,7255;0,140509
1113,6897;0,138973
1114,6539;0,137303
1115,6182;0,135607
1116,5824;0,133986
1117,5466;0,132507
1118,5109;0,131187
1119,4751;0,129993
1120,4393;0,128851
1121,4036;0,127664
1122,3678;0,126334
1123,3320;0,124779
1124,2963;0,122954
1125,2605;0,120852
1126,2247;0,11851
1127,1890;0,115991
1128,1532;0,113367
1129,1174;0,110703
1130,0817;0,108046
1131,0459;0,105429
1132,0101;0,102874
1132,9744;0,10041
1133,9386;0,0980729
1134,9028;0,0959093
1135,8671;0,0939693
1136,8313;0,0922972
1137,7955;0,0909236
1138,7598;0,0898592
1139,7240;0,0890949
1140,6882;0,0886039
1141,6525;0,0883484
1142,6167;0,0882879
1143,5809;0,0883866
1144,5452;0,0886186
1145,5094;0,0889686
1146,4736;0,0894287
1147,4379;0,0899924
1148,4021;0,0906499
1149,3663;0,091386
1150,3306;0,0921808
1151,2948;0,0930102
1152,2590;0,0938465
1153,2233;0,0946564
1154,1875;0,0953988
1155,1517;0,0960249
1156,1160;0,0964803
1157,0802;0,0967078
1158,0444;0,0966498
1159,0087;0,0962492
1159,9729;0,0954506
1160,9371;0,094206
1161,9014;0,0924856
1162,8656;0,0902918
1163,8298;0,0876687
1164,7941;0,0847027
1165,7583;0,0815115
1166,7225;0,0782254
1167,6868;0,0749667
1168,6510;0,0718346
1169,6152;0,0688982
1170,5795;0,0661981
1171,5437;0,0637539
1172,5079;0,0615727
1173,4722;0,0596549
1174,4364;0,0579948
1175,4006;0,0565788
1176,3649;0,0553835
1177,3291;0,054377
1178,2933;0,0535247
1179,2576;0,0527963
1180,2218;0,0521722
1181,1860;0,0516435
1182,1503;0,0512086
1183,1145;0,0508668
1184,0787;0,0506145
1185,0430;0,0504455
1186,0072;0,0503545
1186,9714;0,0503418
1187,9357;0,0504146
1188,8999;0,0505838
1189,8641;0,0508594
1190,8284;0,0512445
1191,7926;0,0517338
1192,7568;0,0523161
1193,7211;0,0529784
1194,6853;0,0537098
1195,6495;0,0545018
1196,6138;0,0553459
1197,5780;0,0562288
1198,5422;0,0571316
1199,5065;0,0579135
1200,4707;0,0588048
1201,4349;0,0596622
1202,3992;0,060484
1203,3634;0,0612768
1204,3276;0,0620502
1205,2919;0,0628113
1206,2561;0,0635632
1207,2203;0,064309
1208,1846;0,0650584
1209,1488;0,0658314
1210,1130;0,0666575
1211,0773;0,0675665
1212,0415;0,0685779
1213,0057;0,0696917
1213,9700;0,0708883
1214,9342;0,0721354
1215,8984;0,0733996
1216,8627;0,0746554
1217,8269;0,0758878
1218,7911;0,0770913
1219,7554;0,0782643
1220,7196;0,0794044
1221,6838;0,0805075
1222,6481;0,0815683
1223,6123;0,0825823
1224,5765;0,0835453
1225,5408;0,0844531
1226,5050;0,0853015
1227,4692;0,0860874
1228,4335;0,08681
1229,3977;0,0874709
1230,3619;0,0880714
1231,3262;0,0886102
1232,2904;0,0890821
1233,2546;0,0894809
1234,2189;0,0898045
1235,1831;0,090059
1236,1473;0,0902577
1237,1116;0,0904161
1238,0758;0,0905436
1239,0400;0,0906393
1240,0043;0,0906923
1240,9685;0,0906869
1241,9327;0,09061
1242,8970;0,0904555
1243,8612;0,0902253
1244,8254;0,0899265
1245,7897;0,0895683
1246,7539;0,0891596
1247,7181;0,0887083
1248,6824;0,0882213
1249,6466;0,087705
1250,6108;0,0871653
1251,5751;0,0866084
1252,5393;0,086041
1253,5035;0,0854701
1254,4678;0,084901
1255,4320;0,0843342
1256,3962;0,0837647
1257,3605;0,0831828
1258,3247;0,0825775
1259,2889;0,0819403
1260,2532;0,081267
1261,2174;0,0805568
1262,1816;0,0798109
1263,1459;0,0790305
1264,1101;0,0782175
1265,0743;0,0773746
1266,0386;0,0765043
1267,0028;0,0756081
1267,9670;0,0746856
1268,9313;0,0737363
1269,8955;0,0727629
1270,8597;0,0717726
1271,8240;0,0707763
1272,7882;0,0697854
1273,7524;0,0688095
1274,7167;0,067856
1275,6809;0,0669321
1276,6451;0,0660448
1277,6094;0,0651984
1278,5736;0,0643911
1279,5378;0,0636147
1280,5021;0,0628589
1281,4663;0,062118
1282,4305;0,0613944
1283,3948;0,0606972
1284,3590;0,0600368
1285,3232;0,0594209
1286,2875;0,0588542
1287,2517;0,0583421
1288,2159;0,0578934
1289,1802;0,0575179
1290,1444;0,0572223
1291,1086;0,0570061
1292,0729;0,0568629
1293,0371;0,0567851
1294,0013;0,0567692
1294,9656;0,0568162
1295,9298;0,0569297
1296,8940;0,0571127
1297,8583;0,0573666
1298,8225;0,057692
1299,7867;0,0580898
1300,7510;0,0585588
1301,7152;0,0590949
1302,6794;0,0596884
1303,6437;0,0603275
1304,6079;0,0610037
1305,5721;0,0617138
1306,5364;0,0624579
1307,5006;0,0632346
1308,4648;0,0640365
1309,4291;0,0648485
1310,3933;0,0656505
1311,3575;0,0664206
1312,3218;0,0671382
1313,2860;0,067785
1314,2502;0,0683447
1315,2145;0,0687994
1316,1787;0,0691279
1317,1429;0,0693085
1318,1072;0,0693289
1319,0714;0,0691988
1320,0356;0,0689549
1320,9999;0,0686523
1321,9641;0,0683453
1322,9283;0,0680713
1323,8926;0,0678468
1324,8568;0,067671
1325,8210;0,0675328
1326,7853;0,067418
1327,7495;0,067312
1328,7137;0,0672012
1329,6780;0,0670718
1330,6422;0,0669108
1331,6064;0,0667091
1332,5707;0,0664638
1333,5349;0,0661778
1334,4991;0,0658524
1335,4634;0,0654781
1336,4276;0,0650301
1337,3918;0,0644761
1338,3561;0,0638006
1339,3203;0,0630366
1340,2845;0,0622676
1341,2488;0,0615828
1342,2130;0,0610278
1343,1772;0,0605966
1344,1415;0,06026
1345,1057;0,0599941
1346,0699;0,0597929
1347,0342;0,0596658
1347,9984;0,059628
1348,9626;0,0596906
1349,9269;0,0598544
1350,8911;0,0601088
1351,8553;0,060437
1352,8196;0,0608235
1353,7838;0,0612609
1354,7480;0,0617509
1355,7123;0,0622988
1356,6765;0,062904
1357,6407;0,0635555
1358,6050;0,0642351
1359,5692;0,0649225
