TITLE;
DATA TYPE;INFRARED SPECTRUM
ORIGIN;JASCO
OWNER;
DATE;25/02/19
TIME;12:28:33
SPECTROMETER/DATA SYSTEM;
LOCALE;9226
RESOLUTION;
DELTAX;0,964233
XUNITS;1/CM
YUNITS;ABSORBANCE
FIRSTX;  399,1927
LASTX; 4000,6047
NPOINTS;    3736
FIRSTY;     0,15462
MAXY;     0,24113
MINY;     0,01216
XYDATA
399,1927;0,154619
400,1569;0,157096
401,1211;0,158607
402,0854;0,159141
403,0496;0,159034
404,0138;0,158671
404,9781;0,158361
405,9423;0,158278
406,9065;0,158458
407,8708;0,158839
408,8350;0,159343
409,7992;0,159919
410,7635;0,160532
411,7277;0,161128
412,6919;0,161634
413,6562;0,162003
414,6204;0,162267
415,5846;0,162559
416,5489;0,163105
417,5131;0,164124
418,4773;0,165593
419,4416;0,167052
420,4058;0,16796
421,3700;0,168221
422,3343;0,16813
423,2985;0,16803
424,2627;0,168133
425,2270;0,168475
426,1912;0,168939
427,1554;0,169351
428,1197;0,169594
429,0839;0,169677
430,0481;0,169722
431,0124;0,169899
431,9766;0,170318
432,9408;0,170955
433,9051;0,171618
434,8693;0,172011
435,8335;0,171863
436,7978;0,171084
437,7620;0,169836
438,7262;0,168461
439,6905;0,167329
440,6547;0,166693
441,6189;0,166601
442,5832;0,16688
443,5474;0,167226
444,5116;0,167385
445,4759;0,167283
446,4401;0,167012
447,4043;0,166707
448,3686;0,166446
449,3328;0,166218
450,2970;0,165959
451,2613;0,165598
452,2255;0,165086
453,1897;0,164402
454,1540;0,163554
455,1182;0,162605
456,0824;0,161691
457,0467;0,161006
458,0109;0,160704
458,9751;0,160765
459,9394;0,160985
460,9036;0,161133
461,8678;0,1611
462,8321;0,16092
463,7963;0,160706
464,7605;0,160562
465,7248;0,160513
466,6890;0,160498
467,6532;0,160422
468,6175;0,160228
469,5817;0,159926
470,5459;0,159583
471,5102;0,159294
472,4744;0,159142
473,4386;0,15917
474,4029;0,15938
475,3671;0,159744
476,3313;0,160214
477,2956;0,160727
478,2598;0,161209
479,2240;0,161592
480,1883;0,161836
481,1525;0,161952
482,1167;0,162
483,0810;0,162069
484,0452;0,162231
485,0094;0,162509
485,9737;0,162864
486,9379;0,163212
487,9021;0,163471
488,8664;0,163592
489,8306;0,163579
490,7948;0,163498
491,7591;0,163463
492,7233;0,163585
493,6875;0,163917
494,6518;0,164422
495,6160;0,164988
496,5802;0,165491
497,5445;0,165858
498,5087;0,166097
499,4729;0,166289
500,4372;0,166535
501,4014;0,166886
502,3656;0,167304
503,3299;0,167679
504,2941;0,167912
505,2583;0,167985
506,2226;0,167973
507,1868;0,167999
508,1510;0,168173
509,1153;0,168548
510,0795;0,169108
511,0437;0,169798
512,0080;0,170555
512,9722;0,171331
513,9365;0,172082
514,9007;0,172763
515,8649;0,173319
516,8292;0,173702
517,7934;0,173894
518,7576;0,173921
519,7219;0,173847
520,6861;0,173753
521,6503;0,173712
522,6146;0,173779
523,5788;0,173986
524,5430;0,17433
525,5073;0,174748
526,4715;0,175125
527,4357;0,175342
528,4000;0,175338
529,3642;0,175135
530,3284;0,174823
531,2927;0,17451
532,2569;0,174273
533,2211;0,174127
534,1854;0,174021
535,1496;0,173881
536,1138;0,17366
537,0781;0,173385
538,0423;0,173138
539,0065;0,17301
539,9708;0,173039
540,9350;0,173181
541,8992;0,173347
542,8635;0,173454
543,8277;0,17349
544,7919;0,173519
545,7562;0,173649
546,7204;0,173953
547,6846;0,174422
548,6489;0,174966
549,6131;0,175461
550,5773;0,17583
551,5416;0,176079
552,5058;0,176293
553,4700;0,176581
554,4343;0,177013
555,3985;0,177572
556,3627;0,178152
557,3270;0,178594
558,2912;0,178753
559,2554;0,178552
560,2197;0,178013
561,1839;0,177237
562,1481;0,176364
563,1124;0,175513
564,0766;0,174748
565,0408;0,174073
566,0051;0,173468
566,9693;0,172917
567,9335;0,172438
568,8978;0,172061
569,8620;0,171801
570,8262;0,171632
571,7905;0,1715
572,7547;0,171352
573,7189;0,171175
574,6832;0,170998
575,6474;0,170869
576,6116;0,170812
577,5759;0,170801
578,5401;0,170775
579,5043;0,170681
580,4686;0,170506
581,4328;0,170295
582,3970;0,170112
583,3613;0,170008
584,3255;0,169993
585,2897;0,170038
586,2540;0,1701
587,2182;0,170155
588,1824;0,170198
589,1467;0,170242
590,1109;0,170296
591,0751;0,170353
592,0394;0,17039
593,0036;0,170375
593,9678;0,170278
594,9321;0,170089
595,8963;0,169814
596,8605;0,16948
597,8248;0,169121
598,7890;0,168773
599,7532;0,168459
600,7175;0,168182
601,6817;0,167932
602,6459;0,167685
603,6102;0,167414
604,5744;0,167089
605,5386;0,166681
606,5029;0,16617
607,4671;0,165557
608,4313;0,164872
609,3956;0,164167
610,3598;0,163493
611,3240;0,162875
612,2883;0,1623
613,2525;0,16173
614,2167;0,161117
615,1810;0,160424
616,1452;0,159643
617,1094;0,158782
618,0737;0,157863
619,0379;0,156898
620,0021;0,155892
620,9664;0,154844
621,9306;0,153763
622,8948;0,152675
623,8591;0,151627
624,8233;0,150681
625,7875;0,149857
626,7518;0,149157
627,7160;0,148547
628,6802;0,147974
629,6445;0,147392
630,6087;0,146778
631,5729;0,146133
632,5372;0,145474
633,5014;0,144819
634,4656;0,144178
635,4299;0,143558
636,3941;0,142969
637,3583;0,142423
638,3226;0,141935
639,2868;0,141504
640,2510;0,141111
641,2153;0,140714
642,1795;0,140271
643,1437;0,139759
644,1080;0,139186
645,0722;0,138589
646,0364;0,138015
647,0007;0,137499
647,9649;0,137047
648,9291;0,136647
649,8934;0,136287
650,8576;0,135974
651,8218;0,135735
652,7861;0,135603
653,7503;0,135596
654,7145;0,135705
655,6788;0,135896
656,6430;0,136121
657,6072;0,136331
658,5715;0,136479
659,5357;0,136526
660,4999;0,136449
661,4642;0,136276
662,4284;0,13608
663,3926;0,135949
664,3569;0,13592
665,3211;0,135919
666,2853;0,135717
667,2496;0,134992
668,2138;0,133647
669,1780;0,132065
670,1423;0,130657
671,1065;0,12946
672,0707;0,128331
673,0350;0,127134
673,9992;0,125784
674,9634;0,124273
675,9277;0,122686
676,8919;0,121152
677,8561;0,119755
678,8204;0,118501
679,7846;0,117353
680,7488;0,116284
681,7131;0,115296
682,6773;0,114404
683,6415;0,113619
684,6058;0,112942
685,5700;0,112374
686,5342;0,111912
687,4985;0,111544
688,4627;0,111242
689,4269;0,110976
690,3912;0,110723
691,3554;0,110476
692,3196;0,110237
693,2839;0,110005
694,2481;0,109771
695,2123;0,109523
696,1766;0,109252
697,1408;0,108959
698,1050;0,108652
699,0693;0,108338
700,0335;0,108018
700,9977;0,107687
701,9620;0,107343
702,9262;0,106986
703,8904;0,106619
704,8547;0,106241
705,8189;0,105844
706,7831;0,105419
707,7474;0,104967
708,7116;0,104495
709,6758;0,104018
710,6401;0,103549
711,6043;0,103094
712,5685;0,102652
713,5328;0,102221
714,4970;0,101802
715,4612;0,101594
716,4255;0,101148
717,3897;0,100676
718,3539;0,100163
719,3182;0,0996029
720,2824;0,0990005
721,2466;0,0983679
722,2109;0,0977185
723,1751;0,0970596
724,1393;0,0963909
725,1036;0,0957102
726,0678;0,0950188
727,0320;0,0943241
727,9963;0,0936382
728,9605;0,0929744
729,9247;0,0923443
730,8890;0,0917573
731,8532;0,0912202
732,8174;0,0907355
733,7817;0,0902992
734,7459;0,0898989
735,7101;0,089516
736,6744;0,0891302
737,6386;0,0887263
738,6028;0,0882994
739,5671;0,0878575
740,5313;0,087418
741,4955;0,0870007
742,4598;0,0866179
743,4240;0,086267
744,3882;0,0859308
745,3525;0,0855845
746,3167;0,0852078
747,2809;0,0847929
748,2452;0,0843465
749,2094;0,0838846
750,1736;0,0834226
751,1379;0,082969
752,1021;0,0825234
753,0663;0,0820803
754,0306;0,0816363
754,9948;0,0811948
755,9590;0,0807667
756,9233;0,0803653
757,8875;0,0799974
758,8517;0,0796582
759,8160;0,0793318
760,7802;0,0789985
761,7444;0,078645
762,7087;0,07827
763,6729;0,0778829
764,6371;0,0774976
765,6014;0,0771257
766,5656;0,0767734
767,5298;0,0764416
768,4941;0,0761261
769,4583;0,0758183
770,4225;0,0755075
771,3868;0,0751873
772,3510;0,0748631
773,3152;0,0745541
774,2795;0,0742855
775,2437;0,0740721
776,2079;0,0739042
777,1722;0,0737474
778,1364;0,0735588
779,1006;0,0733097
780,0649;0,0730007
781,0291;0,0726583
781,9933;0,0723174
782,9576;0,0720026
783,9218;0,07172
784,8860;0,0714622
785,8503;0,0712209
786,8145;0,0709937
787,7787;0,0707834
788,7430;0,0705915
789,7072;0,0704138
790,6714;0,0702428
791,6357;0,0700746
792,5999;0,0699134
793,5641;0,0697694
794,5284;0,0696505
795,4926;0,0695545
796,4568;0,0694674
797,4211;0,0693695
798,3853;0,0692453
799,3495;0,0690913
800,3138;0,0689176
801,2780;0,0687414
802,2422;0,068579
803,2065;0,0684393
804,1707;0,0683212
805,1349;0,0682164
806,0992;0,0681144
807,0634;0,068007
808,0276;0,0678916
808,9919;0,0677706
809,9561;0,06765
810,9203;0,0675351
811,8846;0,0674276
812,8488;0,0673244
813,8130;0,0672197
814,7773;0,0671082
815,7415;0,0669885
816,7057;0,0668634
817,6700;0,0667364
818,6342;0,0666089
819,5984;0,0664784
820,5627;0,0663413
821,5269;0,0661979
822,4911;0,0660551
823,4554;0,0659262
824,4196;0,0658251
825,3839;0,0657599
826,3481;0,0657282
827,3123;0,0657159
828,2766;0,0657017
829,2408;0,0656629
830,2050;0,0655832
831,1693;0,0654584
832,1335;0,0652969
833,0977;0,0651148
834,0620;0,0649266
835,0262;0,0647362
835,9904;0,0645358
836,9547;0,0643128
837,9189;0,0640618
838,8831;0,0637924
839,8474;0,0635267
840,8116;0,063288
841,7758;0,0630866
842,7401;0,0629162
843,7043;0,0627602
844,6685;0,0626053
845,6328;0,0624513
846,5970;0,0623101
847,5612;0,0621964
848,5255;0,0621161
849,4897;0,0620611
850,4539;0,0620144
851,4182;0,0619589
852,3824;0,0618866
853,3466;0,0618016
854,3109;0,0617171
855,2751;0,0616486
856,2393;0,0616077
857,2036;0,0615985
858,1678;0,0616179
859,1320;0,0616581
860,0963;0,0617118
861,0605;0,061775
862,0247;0,0618483
862,9890;0,0619347
863,9532;0,0620371
864,9174;0,062157
865,8817;0,062295
866,8459;0,0624516
867,8101;0,0626283
868,7744;0,0628249
869,7386;0,0630381
870,7028;0,06326
871,6671;0,0634794
872,6313;0,0636845
873,5955;0,0638663
874,5598;0,0640204
875,5240;0,0641483
876,4882;0,0642578
877,4525;0,0643625
878,4167;0,0644812
879,3809;0,0646345
880,3452;0,0648412
881,3094;0,0651151
882,2736;0,0654637
883,2379;0,0658891
884,2021;0,066391
885,1663;0,0669692
886,1306;0,0676245
887,0948;0,0683577
888,0590;0,069166
889,0233;0,0700398
889,9875;0,0709595
890,9517;0,0718959
891,9160;0,0728127
892,8802;0,0736706
893,8444;0,0744315
894,8087;0,0750605
895,7729;0,0755268
896,7371;0,0758052
897,7014;0,0758795
898,6656;0,0757473
899,6298;0,0754226
900,5941;0,0749345
901,5583;0,0743207
902,5225;0,073619
903,4868;0,0728603
904,4510;0,0720692
905,4152;0,0712681
906,3795;0,0704844
907,3437;0,0697526
908,3079;0,0691102
909,2722;0,068588
910,2364;0,0681997
911,2007;0,0679374
912,1649;0,0677754
913,1292;0,0676807
914,0934;0,0676254
915,0576;0,0675955
916,0219;0,0675915
916,9861;0,0676235
917,9503;0,0677028
918,9146;0,0678343
919,8788;0,0680133
920,8430;0,0682257
921,8073;0,0684514
922,7715;0,0686705
923,7357;0,0688692
924,7000;0,0690463
925,6642;0,0692142
926,6284;0,0693939
927,5927;0,0696052
928,5569;0,0698559
929,5211;0,0701373
930,4854;0,0704286
931,4496;0,0707087
932,4138;0,0709691
933,3781;0,0712183
934,3423;0,0714779
935,3065;0,0717708
936,2708;0,0721113
937,2350;0,0725018
938,1992;0,072937
939,1635;0,0734124
940,1277;0,0739305
941,0919;0,0745022
942,0562;0,0751419
943,0204;0,0758623
943,9846;0,0766682
944,9489;0,0775561
945,9131;0,0785153
946,8773;0,0795333
947,8416;0,0806011
948,8058;0,0817172
949,7700;0,0828886
950,7343;0,0841281
951,6985;0,0854486
952,6627;0,0868575
953,6270;0,0883532
954,5912;0,0899257
955,5554;0,0915601
956,5197;0,0932412
957,4839;0,0949568
958,4481;0,0966974
959,4124;0,0984548
960,3766;0,10022
961,3408;0,101982
962,3051;0,103733
963,2693;0,105469
964,2335;0,107195
965,1978;0,108924
966,1620;0,110672
967,1262;0,112455
968,0905;0,114283
969,0547;0,116169
970,0189;0,118128
970,9832;0,120185
971,9474;0,122371
972,9116;0,124718
973,8759;0,127255
974,8401;0,129996
975,8043;0,13295
976,7686;0,136114
977,7328;0,139478
978,6970;0,143018
979,6613;0,146688
980,6255;0,150411
981,5897;0,15409
982,5540;0,157618
983,5182;0,160901
984,4824;0,163874
985,4467;0,166511
986,4109;0,168825
987,3751;0,170855
988,3394;0,172648
989,3036;0,174248
990,2678;0,175682
991,2321;0,176961
992,1963;0,17809
993,1605;0,17908
994,1248;0,17996
995,0890;0,18078
996,0532;0,181593
997,0175;0,18244
997,9817;0,183336
998,9459;0,184276
999,9102;0,185244
1000,8744;0,186239
1001,8386;0,187284
1002,8029;0,18842
1003,7671;0,189694
1004,7313;0,191142
1005,6956;0,192781
1006,6598;0,194612
1007,6240;0,196637
1008,5883;0,198863
1009,5525;0,201296
1010,5167;0,20393
1011,4810;0,206733
1012,4452;0,209642
1013,4094;0,212575
1014,3737;0,215451
1015,3379;0,218206
1016,3021;0,220805
1017,2664;0,223227
1018,2306;0,225462
1019,1948;0,227502
1020,1591;0,229343
1021,1233;0,230996
1022,0875;0,232492
1023,0518;0,233877
1024,0160;0,235189
1024,9802;0,236451
1025,9445;0,23765
1026,9087;0,238751
1027,8729;0,239702
1028,8372;0,240451
1029,8014;0,240944
1030,7656;0,241134
1031,7299;0,240969
1032,6941;0,240407
1033,6583;0,239424
1034,6226;0,238035
1035,5868;0,236303
1036,5510;0,234339
1037,5153;0,232284
1038,4795;0,230291
1039,4437;0,228488
1040,4080;0,226966
1041,3722;0,225753
1042,3364;0,224825
1043,3007;0,224109
1044,2649;0,22351
1045,2291;0,222932
1046,1934;0,2223
1047,1576;0,221562
1048,1218;0,22069
1049,0861;0,219665
1050,0503;0,218468
1051,0145;0,217078
1051,9788;0,215479
1052,9430;0,213671
1053,9072;0,211674
1054,8715;0,209519
1055,8357;0,207228
1056,7999;0,204796
1057,7642;0,202189
1058,7284;0,199359
1059,6926;0,196278
1060,6569;0,192961
1061,6211;0,189477
1062,5853;0,185935
1063,5496;0,182452
1064,5138;0,179127
1065,4780;0,176026
1066,4423;0,173178
1067,4065;0,170586
1068,3707;0,16823
1069,3350;0,166074
1070,2992;0,164065
1071,2634;0,162146
1072,2277;0,160261
1073,1919;0,158368
1074,1561;0,156443
1075,1204;0,154478
1076,0846;0,152478
1077,0488;0,150459
1078,0131;0,148444
1078,9773;0,146474
1079,9415;0,144597
1080,9058;0,142868
1081,8700;0,141331
1082,8342;0,140007
1083,7985;0,138887
1084,7627;0,13794
1085,7269;0,137122
1086,6912;0,136396
1087,6554;0,135738
1088,6196;0,135141
1089,5839;0,134607
1090,5481;0,134141
1091,5123;0,133744
1092,4766;0,133413
1093,4408;0,133145
1094,4050;0,132939
1095,3693;0,132793
1096,3335;0,132703
1097,2977;0,132664
1098,2620;0,132663
1099,2262;0,132692
1100,1904;0,132736
1101,1547;0,132778
1102,1189;0,132793
1103,0831;0,132752
1104,0474;0,132628
1105,0116;0,132406
1105,9758;0,132088
1106,9401;0,131686
1107,9043;0,131214
1108,8685;0,130671
1109,8328;0,130038
1110,7970;0,129281
1111,7612;0,128367
1112,7255;0,127285
1113,6897;0,126052
1114,6539;0,124721
1115,6182;0,123365
1116,5824;0,122063
1117,5466;0,120873
1118,5109;0,119821
1119,4751;0,118885
1120,4393;0,118
1121,4036;0,117078
1122,3678;0,116024
1123,3320;0,114767
1124,2963;0,113269
1125,2605;0,111535
1126,2247;0,109599
1127,1890;0,107509
1128,1532;0,105315
1129,1174;0,103059
1130,0817;0,100777
1131,0459;0,0985027
1132,0101;0,0962748
1132,9744;0,0941371
1133,9386;0,092136
1134,9028;0,0903161
1135,8671;0,0887142
1136,8313;0,0873556
1137,7955;0,0862512
1138,7598;0,0853984
1139,7240;0,0847833
1140,6882;0,0843851
1141,6525;0,0841807
1142,6167;0,0841477
1143,5809;0,0842662
1144,5452;0,0845175
1145,5094;0,0848825
1146,4736;0,0853424
1147,4379;0,0858796
1148,4021;0,0864798
1149,3663;0,0871322
1150,3306;0,0878271
1151,2948;0,0885512
1152,2590;0,0892843
1153,2233;0,0899962
1154,1875;0,090648
1155,1517;0,0911933
1156,1160;0,091581
1157,0802;0,0917569
1158,0444;0,0916668
1159,0087;0,0912591
1159,9729;0,0904895
1160,9371;0,0893262
1161,9014;0,0877566
1162,8656;0,0857936
1163,8298;0,0834793
1164,7941;0,080886
1165,7583;0,0781098
1166,7225;0,0752585
1167,6868;0,0724361
1168,6510;0,0697278
1169,6152;0,0671915
1170,5795;0,0648574
1171,5437;0,0627358
1172,5079;0,060827
1173,4722;0,0591281
1174,4364;0,0576346
1175,4006;0,0563382
1176,3649;0,0552244
1177,3291;0,0542739
1178,2933;0,0534657
1179,2576;0,0527815
1180,2218;0,0522073
1181,1860;0,0517322
1182,1503;0,0513472
1183,1145;0,0510447
1184,0787;0,0508197
1185,0430;0,050671
1186,0072;0,0506017
1186,9714;0,0506168
1187,9357;0,0507217
1188,8999;0,0509204
1189,8641;0,0512157
1190,8284;0,0516088
1191,7926;0,0520979
1192,7568;0,0526759
1193,7211;0,0533293
1194,6853;0,0540396
1195,6495;0,054787
1196,6138;0,0555548
1197,5780;0,0563314
1198,5422;0,0571104
1199,5065;0,0578777
1200,4707;0,0586491
1201,4349;0,0594101
1202,3992;0,0601581
1203,3634;0,0608932
1204,3276;0,0616176
1205,2919;0,0623349
1206,2561;0,0630494
1207,2203;0,0637687
1208,1846;0,064506
1209,1488;0,0652818
1210,1130;0,0661201
1211,0773;0,0670416
1212,0415;0,0680551
1213,0057;0,0691542
1213,9700;0,0703188
1214,9342;0,0715226
1215,8984;0,0727405
1216,8627;0,0739528
1217,8269;0,0751453
1218,7911;0,0763081
1219,7554;0,0774335
1220,7196;0,0785161
1221,6838;0,0795525
1222,6481;0,0805413
1223,6123;0,0814819
1224,5765;0,0823729
1225,5408;0,083212
1226,5050;0,0839969
1227,4692;0,0847267
1228,4335;0,0854024
1229,3977;0,0860256
1230,3619;0,0865968
1231,3262;0,0871139
1232,2904;0,0875719
1233,2546;0,0879651
1234,2189;0,0882903
1235,1831;0,0885495
1236,1473;0,0887512
1237,1116;0,0889078
1238,0758;0,0890305
1239,0400;0,0891243
1240,0043;0,0891838
1240,9685;0,0891953
1241,9327;0,0891414
1242,8970;0,0890086
1243,8612;0,0887921
1244,8254;0,0884963
1245,7897;0,0881319
1246,7539;0,0877108
1247,7181;0,087244
1248,6824;0,0867411
1249,6466;0,0862111
1250,6108;0,0856637
1251,5751;0,0851071
1252,5393;0,0845466
1253,5035;0,0839816
1254,4678;0,0834066
1255,4320;0,0828133
1256,3962;0,0821946
1257,3605;0,0815484
1258,3247;0,0808785
1259,2889;0,0801924
1260,2532;0,0794961
1261,2174;0,0787889
1262,1816;0,0780627
1263,1459;0,0773048
1264,1101;0,0765041
1265,0743;0,0756551
1266,0386;0,0747577
1267,0028;0,0738146
1267,9670;0,0728288
1268,9313;0,0718031
1269,8955;0,0707444
1270,8597;0,0696656
1271,8240;0,0685844
1272,7882;0,0675194
1273,7524;0,0664838
1274,7167;0,0654846
1275,6809;0,0645244
1276,6451;0,0636045
1277,6094;0,0627257
1278,5736;0,0618863
1279,5378;0,0610812
1280,5021;0,0603024
1281,4663;0,0595443
1282,4305;0,0588072
1283,3948;0,0580988
1284,3590;0,0574306
1285,3232;0,0568128
1286,2875;0,0562515
1287,2517;0,0557488
1288,2159;0,0553063
1289,1802;0,0549272
1290,1444;0,0546167
1291,1086;0,0543801
1292,0729;0,05422
1293,0371;0,0541357
1294,0013;0,0541232
1294,9656;0,0541766
1295,9298;0,0542902
1296,8940;0,0544601
1297,8583;0,0546861
1298,8225;0,0549707
1299,7867;0,0553179
1300,7510;0,0557292
1301,7152;0,0562014
1302,6794;0,0567268
1303,6437;0,0572953
1304,6079;0,0578982
1305,5721;0,058529
1306,5364;0,0591832
1307,5006;0,0598559
1308,4648;0,0605405
1309,4291;0,0612285
1310,3933;0,0619111
1311,3575;0,0625786
1312,3218;0,0632197
1313,2860;0,0638195
1314,2502;0,0643581
1315,2145;0,064811
1316,1787;0,065152
1317,1429;0,0653603
1318,1072;0,0654301
1319,0714;0,0653777
1320,0356;0,0652393
1320,9999;0,0650578
1321,9641;0,0648675
1322,9283;0,0646869
1323,8926;0,0645216
1324,8568;0,0643723
1325,8210;0,0642392
1326,7853;0,0641222
1327,7495;0,0640163
1328,7137;0,0639086
1329,6780;0,0637807
1330,6422;0,0636153
1331,6064;0,0634042
1332,5707;0,0631506
1333,5349;0,0628634
1334,4991;0,0625451
1335,4634;0,0621823
1336,4276;0,0617468
1337,3918;0,061211
1338,3561;0,0605766
1339,3203;0,0598943
1340,2845;0,0592478
1341,2488;0,058706
1342,2130;0,0582891
1343,1772;0,0579763
1344,1415;0,0577329
1345,1057;0,0575347
1346,0699;0,0573784
1347,0342;0,0572801
1347,9984;0,0572647
1348,9626;0,05735
1349,9269;0,0575365
1350,8911;0,0578067
1351,8553;0,058136
1352,8196;0,0585064
1353,7838;0,0589165
1354,7480;0,0593798
1355,7123;0,0599122
1356,6765;0,0605172
1357,6407;0,0611807
