TITLE;
DATA TYPE;INFRARED SPECTRUM
ORIGIN;JASCO
OWNER;
DATE;25/02/19
TIME;14:11:23
SPECTROMETER/DATA SYSTEM;
LOCALE;9226
RESOLUTION;
DELTAX;0,964233
XUNITS;1/CM
YUNITS;ABSORBANCE
FIRSTX;  399,1927
LASTX; 4000,6047
NPOINTS;    3736
FIRSTY;     0,09679
MAXY;     0,10352
MINY;     0,00673
XYDATA
399,1927;0,096795
400,1569;0,0934787
401,1211;0,0908735
402,0854;0,0894035
403,0496;0,0888593
404,0138;0,0888198
404,9781;0,0888983
405,9423;0,0888651
406,9065;0,088665
407,8708;0,0883276
408,8350;0,0878463
409,7992;0,0871429
410,7635;0,086159
411,7277;0,0849886
412,6919;0,0839013
413,6562;0,0832168
414,6204;0,0831655
415,5846;0,0838461
416,5489;0,0852281
417,5131;0,0870799
418,4773;0,0888608
419,4416;0,0899159
420,4058;0,0900109
421,3700;0,0894274
422,3343;0,0885496
423,2985;0,0876433
424,2627;0,0869052
425,2270;0,0865183
426,1912;0,0866073
427,1554;0,0871543
428,1197;0,0879801
429,0839;0,0888239
430,0481;0,0894621
431,0124;0,0897977
431,9766;0,0898763
432,9408;0,0898243
433,9051;0,0897483
434,8693;0,0896685
435,8335;0,0895312
436,7978;0,0892798
437,7620;0,0889156
438,7262;0,0884951
439,6905;0,0880793
440,6547;0,0876904
441,6189;0,0873063
442,5832;0,0868966
443,5474;0,0864708
444,5116;0,0860953
445,4759;0,0858539
446,4401;0,0857815
447,4043;0,0858264
448,3686;0,0858639
449,3328;0,0857538
450,2970;0,0854156
451,2613;0,0848845
452,2255;0,0843041
453,1897;0,0838507
454,1540;0,0836404
455,1182;0,083676
456,0824;0,0838554
457,0467;0,0840284
458,0109;0,0840798
458,9751;0,083984
459,9394;0,0837795
460,9036;0,0834986
461,8678;0,0831428
462,8321;0,0827221
463,7963;0,0823072
464,7605;0,0820417
465,7248;0,0820847
466,6890;0,0825143
467,6532;0,0832678
468,6175;0,0841663
469,5817;0,084996
470,5459;0,0855868
471,5102;0,0858624
472,4744;0,0858528
473,4386;0,0856608
474,4029;0,0853989
475,3671;0,085142
476,3313;0,0849243
477,2956;0,0847594
478,2598;0,0846566
479,2240;0,0846217
480,1883;0,0846515
481,1525;0,0847301
482,1167;0,0848337
483,0810;0,0849411
484,0452;0,0850454
485,0094;0,0851579
485,9737;0,0852965
486,9379;0,0854649
487,9021;0,0856331
488,8664;0,0857344
489,8306;0,0856828
490,7948;0,0854115
491,7591;0,0849196
492,7233;0,0842986
493,6875;0,0837102
494,6518;0,0833207
495,6160;0,0832309
496,5802;0,0834393
497,5445;0,0838507
498,5087;0,0843151
499,4729;0,0846822
500,4372;0,0848594
501,4014;0,0848584
502,3656;0,0847995
503,3299;0,0848515
504,2941;0,0851363
505,2583;0,0856627
506,2226;0,0863269
507,1868;0,0869662
508,1510;0,0874367
509,1153;0,0876793
510,0795;0,0877412
511,0437;0,0877403
512,0080;0,0877997
512,9722;0,0879923
513,9365;0,0883201
514,9007;0,0887238
515,8649;0,0891111
516,8292;0,0893955
517,7934;0,0895358
518,7576;0,0895588
519,7219;0,0895428
520,6861;0,0895707
521,6503;0,0896901
522,6146;0,0899003
523,5788;0,0901592
524,5430;0,090397
525,5073;0,0905342
526,4715;0,0905086
527,4357;0,0902992
528,4000;0,0899309
529,3642;0,0894617
530,3284;0,0889644
531,2927;0,0885118
532,2569;0,0881604
533,2211;0,0879314
534,1854;0,0878012
535,1496;0,0877143
536,1138;0,0876151
537,0781;0,0874786
538,0423;0,0873177
539,0065;0,0871647
539,9708;0,0870418
540,9350;0,0869428
541,8992;0,0868407
542,8635;0,0867133
543,8277;0,0865701
544,7919;0,0864622
545,7562;0,0864655
546,7204;0,0866446
547,6846;0,0870165
548,6489;0,0875335
549,6131;0,0880974
550,5773;0,088596
551,5416;0,0889447
552,5058;0,0891147
553,4700;0,0891384
554,4343;0,0890892
555,3985;0,0890434
556,3627;0,0890409
557,3270;0,0890644
558,2912;0,0890516
559,2554;0,0889321
560,2197;0,08867
561,1839;0,0882882
562,1481;0,087859
563,1124;0,087468
564,0766;0,0871699
565,0408;0,0869633
566,0051;0,0867964
566,9693;0,0865993
567,9335;0,0863262
568,8978;0,0859846
569,8620;0,0856339
570,8262;0,0853545
571,7905;0,0852102
572,7547;0,0852224
573,7189;0,0853649
574,6832;0,0855738
575,6474;0,0857697
576,6116;0,0858861
577,5759;0,0858957
578,5401;0,0858191
579,5043;0,0857139
580,4686;0,0856469
581,4328;0,0856618
582,3970;0,0857565
583,3613;0,0858799
584,3255;0,0859538
585,2897;0,0859118
586,2540;0,0857328
587,2182;0,0854525
588,1824;0,0851498
589,1467;0,0849148
590,1109;0,0848155
591,0751;0,0848705
592,0394;0,0850398
593,0036;0,0852387
593,9678;0,0853699
594,9321;0,0853593
595,8963;0,0851776
596,8605;0,0848464
597,8248;0,0844319
598,7890;0,0840246
599,7532;0,0837073
600,7175;0,0835187
601,6817;0,0834353
602,6459;0,083385
603,6102;0,0832851
604,5744;0,0830835
605,5386;0,0827796
606,5029;0,082417
607,4671;0,0820546
608,4313;0,081735
609,3956;0,0814696
610,3598;0,0812464
611,3240;0,0810485
612,2883;0,0808688
613,2525;0,0807077
614,2167;0,0805583
615,1810;0,0803942
616,1452;0,08017
617,1094;0,0798405
618,0737;0,0793866
619,0379;0,0788266
620,0021;0,078205
620,9664;0,0775695
621,9306;0,0769581
622,8948;0,0763999
623,8591;0,0759219
624,8233;0,0755277
625,7875;0,0752635
626,7518;0,0751075
627,7160;0,0750086
628,6802;0,0749007
629,6445;0,0747345
630,6087;0,074496
631,5729;0,0742108
632,5372;0,0739265
633,5014;0,0736854
634,4656;0,0735031
635,4299;0,0733639
636,3941;0,0732334
637,3583;0,0730804
638,3226;0,0728933
639,2868;0,072685
640,2510;0,0724855
641,2153;0,0723288
642,1795;0,0722392
643,1437;0,0722213
644,1080;0,0722565
645,0722;0,0723073
646,0364;0,0723304
647,0007;0,0722938
647,9649;0,0721925
648,9291;0,0720538
649,8934;0,071926
650,8576;0,0718541
651,8218;0,0718575
652,7861;0,0719218
653,7503;0,0720079
654,7145;0,0720688
655,6788;0,0720687
656,6430;0,0719981
657,6072;0,0718766
658,5715;0,0717414
659,5357;0,0716249
660,4999;0,0715276
661,4642;0,0714055
662,4284;0,0711813
663,3926;0,0707799
664,3569;0,0701839
665,3211;0,0695056
666,2853;0,0690198
667,2496;0,0690198
668,2138;0,0694284
669,1780;0,0697637
670,1423;0,0697879
671,1065;0,069593
672,0707;0,0692289
673,0350;0,0686844
673,9992;0,0679906
674,9634;0,067227
675,9277;0,0664724
676,8919;0,0657636
677,8561;0,0650961
678,8204;0,0644552
679,7846;0,0638432
680,7488;0,0632773
681,7131;0,062774
682,6773;0,0623299
683,6415;0,0619258
684,6058;0,0615406
685,5700;0,0611646
686,5342;0,060799
687,4985;0,0604472
688,4627;0,0601111
689,4269;0,0597821
690,3912;0,0594558
691,3554;0,0591372
692,3196;0,058839
693,2839;0,0585737
694,2481;0,0583454
695,2123;0,0581457
696,1766;0,0579555
697,1408;0,0577515
698,1050;0,0575154
699,0693;0,0572411
700,0335;0,0569361
700,9977;0,0566175
701,9620;0,056305
702,9262;0,056013
703,8904;0,0557413
704,8547;0,0554927
705,8189;0,0552667
706,7831;0,0550633
707,7474;0,0548802
708,7116;0,0547079
709,6758;0,0545258
710,6401;0,0543046
711,6043;0,0540166
712,5685;0,0536522
713,5328;0,0532336
714,4970;0,0528124
715,4612;0,0520447
716,4255;0,0518656
717,3897;0,0518099
718,3539;0,0517976
719,3182;0,0517122
720,2824;0,0514617
721,2466;0,0510313
722,2109;0,0504882
723,1751;0,0499334
724,1393;0,0494432
725,1036;0,0490396
726,0678;0,0487008
727,0320;0,0483918
727,9963;0,0480929
728,9605;0,0478065
729,9247;0,0475449
730,8890;0,047312
731,8532;0,0470959
732,8174;0,0468777
733,7817;0,0466452
734,7459;0,0464015
735,7101;0,0461616
736,6744;0,0459405
737,6386;0,0457448
738,6028;0,0455695
739,5671;0,0454036
740,5313;0,0452361
741,4955;0,0450608
742,4598;0,044877
743,4240;0,044689
744,3882;0,0445044
745,3525;0,0443316
746,3167;0,0441758
747,2809;0,0440343
748,2452;0,0438955
749,2094;0,0437419
750,1736;0,0435574
751,1379;0,0433346
752,1021;0,0430785
753,0663;0,0428038
754,0306;0,0425301
754,9948;0,0422757
755,9590;0,042053
756,9233;0,0418669
757,8875;0,0417146
758,8517;0,0415879
759,8160;0,0414773
760,7802;0,0413737
761,7444;0,0412696
762,7087;0,0411542
763,6729;0,0410116
764,6371;0,0408231
765,6014;0,0405788
766,5656;0,0402902
767,5298;0,0399938
768,4941;0,039739
769,4583;0,0395623
770,4225;0,0394663
771,3868;0,0394172
772,3510;0,0393664
773,3152;0,0392806
774,2795;0,039161
775,2437;0,0390369
776,2079;0,0389401
777,1722;0,038878
778,1364;0,0388268
779,1006;0,0387462
780,0649;0,0386061
781,0291;0,0384033
781,9933;0,0381615
782,9576;0,0379152
783,9218;0,0376927
784,8860;0,0375083
785,8503;0,0373642
786,8145;0,0372569
787,7787;0,0371805
788,7430;0,0371262
789,7072;0,037081
790,6714;0,0370297
791,6357;0,0369599
792,5999;0,0368665
793,5641;0,0367521
794,5284;0,0366237
795,4926;0,0364897
796,4568;0,0363585
797,4211;0,0362389
798,3853;0,0361392
799,3495;0,0360637
800,3138;0,0360077
801,2780;0,0359579
802,2422;0,0358983
803,2065;0,0358192
804,1707;0,0357238
805,1349;0,0356264
806,0992;0,0355438
807,0634;0,0354851
808,0276;0,0354476
808,9919;0,035419
809,9561;0,0353847
810,9203;0,0353329
811,8846;0,0352568
812,8488;0,0351545
813,8130;0,0350288
814,7773;0,0348889
815,7415;0,0347506
816,7057;0,0346319
817,6700;0,0345449
818,6342;0,034488
819,5984;0,0344449
820,5627;0,0343917
821,5269;0,0343098
822,4911;0,0341948
823,4554;0,0340587
824,4196;0,0339229
825,3839;0,0338081
826,3481;0,0337277
827,3123;0,0336854
828,2766;0,0336779
829,2408;0,0336974
830,2050;0,0337327
831,1693;0,0337692
832,1335;0,0337896
833,0977;0,0337778
834,0620;0,0337237
835,0262;0,0336275
835,9904;0,0335002
836,9547;0,0333609
837,9189;0,0332294
838,8831;0,0331195
839,8474;0,0330348
840,8116;0,0329691
841,7758;0,0329104
842,7401;0,0328486
843,7043;0,0327791
844,6685;0,0327038
845,6328;0,032627
846,5970;0,0325513
847,5612;0,0324762
848,5255;0,0324005
849,4897;0,032327
850,4539;0,0322637
851,4182;0,0322209
852,3824;0,0322053
853,3466;0,032215
854,3109;0,0322395
855,2751;0,0322643
856,2393;0,0322769
857,2036;0,0322708
858,1678;0,0322444
859,1320;0,0321996
860,0963;0,0321415
861,0605;0,0320795
862,0247;0,0320295
862,9890;0,0320108
863,9532;0,0320392
864,9174;0,0321184
865,8817;0,0322353
866,8459;0,0323654
867,8101;0,0324829
868,7744;0,0325739
869,7386;0,0326409
870,7028;0,0326991
871,6671;0,032765
872,6313;0,0328456
873,5955;0,0329347
874,5598;0,0330175
875,5240;0,0330797
876,4882;0,033116
877,4525;0,033133
878,4167;0,0331463
879,3809;0,0331748
880,3452;0,0332362
881,3094;0,0333433
882,2736;0,0335039
883,2379;0,0337195
884,2021;0,0339857
885,1663;0,0342928
886,1306;0,0346282
887,0948;0,0349798
888,0590;0,0353392
889,0233;0,0357025
889,9875;0,0360688
890,9517;0,0364361
891,9160;0,0367983
892,8802;0,0371438
893,8444;0,0374564
894,8087;0,0377186
895,7729;0,0379144
896,7371;0,0380313
897,7014;0,0380609
898,6656;0,0379988
899,6298;0,037845
900,5941;0,0376057
901,5583;0,0372943
902,5225;0,0369307
903,4868;0,0365391
904,4510;0,0361435
905,4152;0,0357647
906,3795;0,0354192
907,3437;0,0351193
908,3079;0,0348741
909,2722;0,0346878
910,2364;0,0345578
911,2007;0,034474
912,1649;0,0344209
913,1292;0,0343834
914,0934;0,0343524
915,0576;0,0343272
916,0219;0,0343136
916,9861;0,0343191
917,9503;0,0343482
918,9146;0,0344011
919,8788;0,0344745
920,8430;0,0345646
921,8073;0,0346681
922,7715;0,0347824
923,7357;0,0349041
924,7000;0,0350284
925,6642;0,0351491
926,6284;0,0352601
927,5927;0,0353576
928,5569;0,0354418
929,5211;0,0355176
930,4854;0,0355929
931,4496;0,0356756
932,4138;0,0357703
933,3781;0,0358763
934,3423;0,0359903
935,3065;0,0361103
936,2708;0,0362397
937,2350;0,0363873
938,1992;0,0365635
939,1635;0,0367739
940,1277;0,0370166
941,0919;0,0372831
942,0562;0,0375637
943,0204;0,037853
943,9846;0,0381511
944,9489;0,0384615
945,9131;0,0387875
946,8773;0,0391306
947,8416;0,0394919
948,8058;0,039875
949,7700;0,0402872
950,7343;0,0407374
951,6985;0,0412337
952,6627;0,0417793
953,6270;0,0423728
954,5912;0,0430077
955,5554;0,0436743
956,5197;0,04436
957,4839;0,0450518
958,4481;0,045739
959,4124;0,0464168
960,3766;0,0470884
961,3408;0,0477626
962,3051;0,0484477
963,2693;0,0491452
964,2335;0,0498481
965,1978;0,0505456
966,1620;0,0512324
967,1262;0,0519156
968,0905;0,0526156
969,0547;0,0533581
970,0189;0,054164
970,9832;0,0550424
971,9474;0,055991
972,9116;0,057003
973,8759;0,0580756
974,8401;0,0592142
975,8043;0,0604299
976,7686;0,0617335
977,7328;0,0631281
978,6970;0,0646056
979,6613;0,0661445
980,6255;0,0677113
981,5897;0,0692629
982,5540;0,0707518
983,5182;0,072134
984,4824;0,0733794
985,4467;0,0744786
986,4109;0,075443
987,3751;0,0762976
988,3394;0,0770675
989,3036;0,0777682
990,2678;0,0784021
991,2321;0,0789641
992,1963;0,0794506
993,1605;0,0798677
994,1248;0,0802318
995,0890;0,0805648
996,0532;0,0808873
997,0175;0,0812129
997,9817;0,0815475
998,9459;0,0818918
999,9102;0,0822443
1000,8744;0,0826049
1001,8386;0,0829771
1002,8029;0,0833695
1003,7671;0,0837965
1004,7313;0,0842773
1005,6956;0,084832
1006,6598;0,0854762
1007,6240;0,086216
1008,5883;0,0870464
1009,5525;0,0879544
1010,5167;0,0889232
1011,4810;0,0899378
1012,4452;0,0909864
1013,4094;0,0920596
1014,3737;0,0931468
1015,3379;0,0942345
1016,3021;0,0953049
1017,2664;0,0963373
1018,2306;0,0973111
1019,1948;0,098208
1020,1591;0,0990158
1021,1233;0,09973
1022,0875;0,100356
1023,0518;0,100905
1024,0160;0,101395
1024,9802;0,10184
1025,9445;0,102252
1026,9087;0,10263
1027,8729;0,102967
1028,8372;0,103245
1029,8014;0,10344
1030,7656;0,103522
1031,7299;0,103463
1032,6941;0,103241
1033,6583;0,102853
1034,6226;0,102315
1035,5868;0,101664
1036,5510;0,100949
1037,5153;0,10022
1038,4795;0,0995214
1039,4437;0,0988922
1040,4080;0,098361
1041,3722;0,0979459
1042,3364;0,0976496
1043,3007;0,0974546
1044,2649;0,0973232
1045,2291;0,0972058
1046,1934;0,0970542
1047,1576;0,0968345
1048,1218;0,0965328
1049,0861;0,0961505
1050,0503;0,0956946
1051,0145;0,0951691
1051,9788;0,0945736
1052,9430;0,093908
1053,9072;0,0931767
1054,8715;0,0923889
1055,8357;0,0915521
1056,7999;0,0906642
1057,7642;0,0897098
1058,7284;0,0886652
1059,6926;0,087512
1060,6569;0,0862498
1061,6211;0,0849044
1062,5853;0,0835236
1063,5496;0,0821645
1064,5138;0,0808764
1065,4780;0,0796883
1066,4423;0,0786047
1067,4065;0,077611
1068,3707;0,0766834
1069,3350;0,0757999
1070,2992;0,0749457
1071,2634;0,0741122
1072,2277;0,073293
1073,1919;0,0724792
1074,1561;0,0716587
1075,1204;0,0708193
1076,0846;0,0699541
1077,0488;0,069067
1078,0131;0,068173
1078,9773;0,0672951
1079,9415;0,0664581
1080,9058;0,0656826
1081,8700;0,0649808
1082,8342;0,0643568
1083,7985;0,0638081
1084,7627;0,0633288
1085,7269;0,0629118
1086,6912;0,0625495
1087,6554;0,0622338
1088,6196;0,0619555
1089,5839;0,0617058
1090,5481;0,0614774
1091,5123;0,0612675
1092,4766;0,0610787
1093,4408;0,0609171
1094,4050;0,0607901
1095,3693;0,0607013
1096,3335;0,060649
1097,2977;0,0606253
1098,2620;0,0606189
1099,2262;0,0606183
1100,1904;0,0606141
1101,1547;0,0606002
1102,1189;0,0605732
1103,0831;0,060531
1104,0474;0,0604711
1105,0116;0,0603888
1105,9758;0,0602775
1106,9401;0,0601286
1107,9043;0,0599341
1108,8685;0,059688
1109,8328;0,0593875
1110,7970;0,0590328
1111,7612;0,0586264
1112,7255;0,058174
1113,6897;0,0576856
1114,6539;0,0571769
1115,6182;0,0566683
1116,5824;0,0561801
1117,5466;0,055725
1118,5109;0,055303
1119,4751;0,0548992
1120,4393;0,0544886
1121,4036;0,0540434
1122,3678;0,0535406
1123,3320;0,0529658
1124,2963;0,0523136
1125,2605;0,051585
1126,2247;0,0507864
1127,1890;0,049928
1128,1532;0,0490239
1129,1174;0,048091
1130,0817;0,0471465
1131,0459;0,0462062
1132,0101;0,0452834
1132,9744;0,0443903
1133,9386;0,0435406
1134,9028;0,0427505
1135,8671;0,0420374
1136,8313;0,0414163
1137,7955;0,0408971
1138,7598;0,0404829
1139,7240;0,040172
1140,6882;0,0399594
1141,6525;0,0398394
1142,6167;0,0398044
1143,5809;0,0398449
1144,5452;0,0399491
1145,5094;0,0401048
1146,4736;0,0403007
1147,4379;0,0405274
1148,4021;0,0407771
1149,3663;0,0410418
1150,3306;0,0413128
1151,2948;0,0415815
1152,2590;0,0418403
1153,2233;0,0420823
1154,1875;0,0422999
1155,1517;0,0424811
1156,1160;0,0426076
1157,0802;0,0426538
1158,0444;0,0425893
1159,0087;0,0423828
1159,9729;0,0420085
1160,9371;0,0414511
1161,9014;0,0407113
1162,8656;0,0398067
1163,8298;0,0387697
1164,7941;0,0376407
1165,7583;0,0364613
1166,7225;0,0352676
1167,6868;0,0340895
1168,6510;0,0329508
1169,6152;0,0318716
1170,5795;0,0308683
1171,5437;0,0299527
1172,5079;0,0291304
1173,4722;0,0284014
1174,4364;0,0277617
1175,4006;0,027206
1176,3649;0,0267297
1177,3291;0,0263279
1178,2933;0,0259955
1179,2576;0,0257256
1180,2218;0,02551
1181,1860;0,0253392
1182,1503;0,0252034
1183,1145;0,0250933
1184,0787;0,025001
1185,0430;0,0249222
1186,0072;0,024859
1186,9714;0,0248196
1187,9357;0,0248168
1188,8999;0,0248627
1189,8641;0,0249636
1190,8284;0,0251174
1191,7926;0,0253156
1192,7568;0,0255471
1193,7211;0,0258036
1194,6853;0,0260807
1195,6495;0,0263766
1196,6138;0,026689
1197,5780;0,027012
1198,5422;0,0273373
1199,5065;0,0275238
1200,4707;0,0278473
1201,4349;0,0281607
1202,3992;0,0284674
1203,3634;0,0287719
1204,3276;0,0290772
1205,2919;0,0293833
1206,2561;0,0296889
1207,2203;0,0299938
1208,1846;0,0303016
1209,1488;0,0306199
1210,1130;0,0309585
1211,0773;0,0313261
1212,0415;0,0317273
1213,0057;0,0321611
1213,9700;0,0326217
1214,9342;0,0331004
1215,8984;0,0335887
1216,8627;0,0340793
1217,8269;0,0345668
1218,7911;0,0350487
1219,7554;0,0355234
1220,7196;0,0359884
1221,6838;0,0364386
1222,6481;0,0368665
1223,6123;0,0372645
1224,5765;0,0376275
1225,5408;0,0379553
1226,5050;0,0382523
1227,4692;0,0385244
1228,4335;0,0387755
1229,3977;0,0390061
1230,3619;0,0392136
1231,3262;0,0393951
1232,2904;0,0395501
1233,2546;0,03968
1234,2189;0,0397876
1235,1831;0,0398747
1236,1473;0,0399422
1237,1116;0,0399911
1238,0758;0,0400238
1239,0400;0,0400436
1240,0043;0,0400527
1240,9685;0,0400493
1241,9327;0,0400278
1242,8970;0,0399799
1243,8612;0,0398985
1244,8254;0,039781
1245,7897;0,0396306
1246,7539;0,039455
1247,7181;0,039264
1248,6824;0,039067
1249,6466;0,0388711
1250,6108;0,0386798
1251,5751;0,0384931
1252,5393;0,0383076
1253,5035;0,0381179
1254,4678;0,0379188
1255,4320;0,0377066
1256,3962;0,0374792
1257,3605;0,0372359
1258,3247;0,0369764
1259,2889;0,0367006
1260,2532;0,0364087
1261,2174;0,0361021
1262,1816;0,0357826
1263,1459;0,0354524
1264,1101;0,0351141
1265,0743;0,0347697
1266,0386;0,0344208
1267,0028;0,0340669
1267,9670;0,0337049
1268,9313;0,0333289
1269,8955;0,0329327
1270,8597;0,0325132
1271,8240;0,0320733
1272,7882;0,0316227
1273,7524;0,0311749
1274,7167;0,0307438
1275,6809;0,0303395
1276,6451;0,0299667
1277,6094;0,0296236
1278,5736;0,0293028
1279,5378;0,0289944
1280,5021;0,0286905
1281,4663;0,0283894
1282,4305;0,0280975
1283,3948;0,0278266
1284,3590;0,0275875
1285,3232;0,0273842
1286,2875;0,0272107
1287,2517;0,0270541
1288,2159;0,0269026
1289,1802;0,0267528
1290,1444;0,0266131
1291,1086;0,0264992
1292,0729;0,026426
1293,0371;0,0264003
1294,0013;0,0264186
1294,9656;0,0264698
1295,9298;0,0265407
1296,8940;0,0266226
1297,8583;0,0267135
1298,8225;0,0268182
1299,7867;0,0269446
1300,7510;0,0270999
1301,7152;0,027289
1302,6794;0,0275104
1303,6437;0,0277569
1304,6079;0,0280191
1305,5721;0,0282877
1306,5364;0,0285578
1307,5006;0,0288311
1308,4648;0,0291141
1309,4291;0,0294131
1310,3933;0,0297285
1311,3575;0,0300513
1312,3218;0,0303649
1313,2860;0,0306524
1314,2502;0,0309025
1315,2145;0,0311106
1316,1787;0,0312738
1317,1429;0,031385
1318,1072;0,031433
1319,0714;0,0314105
1320,0356;0,0313229
1320,9999;0,0311904
1321,9641;0,0310402
1322,9283;0,0308959
1323,8926;0,030771
1324,8568;0,0306702
1325,8210;0,0305922
1326,7853;0,0305339
1327,7495;0,03049
1328,7137;0,0304527
1329,6780;0,0304113
1330,6422;0,0303557
1331,6064;0,0302828
1332,5707;0,0301997
1333,5349;0,0301229
1334,4991;0,0300687
1335,4634;0,0300416
