TITLE;
DATA TYPE;INFRARED SPECTRUM
ORIGIN;JASCO
OWNER;
DATE;25/02/19
TIME;11:43:31
SPECTROMETER/DATA SYSTEM;
LOCALE;9226
RESOLUTION;
DELTAX;0,964233
XUNITS;1/CM
YUNITS;ABSORBANCE
FIRSTX;  399,1927
LASTX; 4000,6047
NPOINTS;    3736
FIRSTY;     0,12054
MAXY;     0,13384
MINY;     0,00824
XYDATA
399,1927;0,120539
400,1569;0,121185
401,1211;0,122402
402,0854;0,123376
403,0496;0,123563
404,0138;0,122827
404,9781;0,121449
405,9423;0,119986
406,9065;0,118968
407,8708;0,118602
408,8350;0,118696
409,7992;0,118859
410,7635;0,118789
411,7277;0,118469
412,6919;0,118153
413,6562;0,118179
414,6204;0,118793
415,5846;0,120075
416,5489;0,121892
417,5131;0,123773
418,4773;0,124899
419,4416;0,124648
420,4058;0,123275
421,3700;0,121585
422,3343;0,120162
423,2985;0,11919
424,2627;0,118626
425,2270;0,118363
426,1912;0,118291
427,1554;0,11833
428,1197;0,118423
429,0839;0,118529
430,0481;0,118609
431,0124;0,118633
431,9766;0,118589
432,9408;0,118478
433,9051;0,118293
434,8693;0,118014
435,8335;0,117615
436,7978;0,117103
437,7620;0,11654
438,7262;0,116022
439,6905;0,115636
440,6547;0,115416
441,6189;0,115321
442,5832;0,115255
443,5474;0,115121
444,5116;0,114887
445,4759;0,114593
446,4401;0,114305
447,4043;0,114055
448,3686;0,113815
449,3328;0,113522
450,2970;0,113125
451,2613;0,11262
452,2255;0,112059
453,1897;0,111502
454,1540;0,110981
455,1182;0,110483
456,0824;0,109984
457,0467;0,109502
458,0109;0,10912
458,9751;0,108933
459,9394;0,108959
460,9036;0,109118
461,8678;0,109277
462,8321;0,109331
463,7963;0,109241
464,7605;0,109053
465,7248;0,108863
466,6890;0,108762
467,6532;0,108767
468,6175;0,108807
469,5817;0,10876
470,5459;0,108513
471,5102;0,108039
472,4744;0,107418
473,4386;0,106801
474,4029;0,1063
475,3671;0,105939
476,3313;0,105679
477,2956;0,105492
478,2598;0,1054
479,2240;0,105468
480,1883;0,105743
481,1525;0,106195
482,1167;0,106704
483,0810;0,107107
484,0452;0,107286
485,0094;0,107237
485,9737;0,107057
486,9379;0,106865
487,9021;0,106722
488,8664;0,106624
489,8306;0,106536
490,7948;0,106452
491,7591;0,10641
492,7233;0,106462
493,6875;0,106621
494,6518;0,106834
495,6160;0,107012
496,5802;0,107084
497,5445;0,107047
498,5087;0,106967
499,4729;0,106944
500,4372;0,107061
501,4014;0,107333
502,3656;0,107693
503,3299;0,108033
504,2941;0,108269
505,2583;0,108389
506,2226;0,108451
507,1868;0,108541
508,1510;0,108726
509,1153;0,109011
510,0795;0,109352
511,0437;0,109687
512,0080;0,109985
512,9722;0,110267
513,9365;0,110587
514,9007;0,110995
515,8649;0,11149
516,8292;0,112002
517,7934;0,112414
518,7576;0,112628
519,7219;0,112623
520,6861;0,112461
521,6503;0,112231
522,6146;0,112006
523,5788;0,111823
524,5430;0,111698
525,5073;0,111638
526,4715;0,111648
527,4357;0,111718
528,4000;0,111813
529,3642;0,111875
530,3284;0,111841
531,2927;0,111672
532,2569;0,111371
533,2211;0,110984
534,1854;0,110584
535,1496;0,110233
536,1138;0,109956
537,0781;0,109744
538,0423;0,109569
539,0065;0,109411
539,9708;0,109272
540,9350;0,109171
541,8992;0,109134
542,8635;0,109172
543,8277;0,109272
544,7919;0,109399
545,7562;0,109503
546,7204;0,109553
547,6846;0,109552
548,6489;0,109546
549,6131;0,1096
550,5773;0,109767
551,5416;0,110056
552,5058;0,110433
553,4700;0,110836
554,4343;0,11121
555,3985;0,111524
556,3627;0,111774
557,3270;0,111963
558,2912;0,112085
559,2554;0,112121
560,2197;0,112052
561,1839;0,11187
562,1481;0,111584
563,1124;0,111214
564,0766;0,110786
565,0408;0,110326
566,0051;0,109867
566,9693;0,109451
567,9335;0,109118
568,8978;0,108896
569,8620;0,108781
570,8262;0,108748
571,7905;0,108761
572,7547;0,10879
573,7189;0,108811
574,6832;0,108802
575,6474;0,108739
576,6116;0,108601
577,5759;0,108379
578,5401;0,108082
579,5043;0,107729
580,4686;0,107343
581,4328;0,106945
582,3970;0,106551
583,3613;0,106191
584,3255;0,105899
585,2897;0,105714
586,2540;0,105655
587,2182;0,105711
588,1824;0,105839
589,1467;0,105977
590,1109;0,106068
591,0751;0,10607
592,0394;0,105972
593,0036;0,105786
593,9678;0,105551
594,9321;0,105312
595,8963;0,105107
596,8605;0,104958
597,8248;0,10485
598,7890;0,104742
599,7532;0,104585
600,7175;0,104347
601,6817;0,104036
602,6459;0,103695
603,6102;0,103377
604,5744;0,103116
605,5386;0,102913
606,5029;0,102746
607,4671;0,102585
608,4313;0,102402
609,3956;0,102175
610,3598;0,101885
611,3240;0,10152
612,2883;0,101081
613,2525;0,100594
614,2167;0,100096
615,1810;0,0996181
616,1452;0,0991586
617,1094;0,0986789
618,0737;0,0981279
619,0379;0,0974811
620,0021;0,096764
620,9664;0,0960399
621,9306;0,0953774
622,8948;0,0948195
623,8591;0,0943703
624,8233;0,0939981
625,7875;0,0936668
626,7518;0,0933406
627,7160;0,092998
628,6802;0,0926277
629,6445;0,0922229
630,6087;0,0917799
631,5729;0,0913048
632,5372;0,0908181
633,5014;0,090353
634,4656;0,0899443
635,4299;0,0896129
636,3941;0,0893544
637,3583;0,0891395
638,3226;0,0889252
639,2868;0,0886729
640,2510;0,088365
641,2153;0,0880146
642,1795;0,0876611
643,1437;0,0873545
644,1080;0,0871326
645,0722;0,0870023
646,0364;0,086936
647,0007;0,0868848
647,9649;0,0868033
648,9291;0,0866734
649,8934;0,0865127
650,8576;0,0863588
651,8218;0,0862424
652,7861;0,0861683
653,7503;0,0861161
654,7145;0,0860601
655,6788;0,0859918
656,6430;0,0859313
657,6072;0,0859166
658,5715;0,0859782
659,5357;0,0861146
660,4999;0,0862849
661,4642;0,0864304
662,4284;0,0865106
663,3926;0,0865234
664,3569;0,0864971
665,3211;0,0864722
666,2853;0,0864722
667,2496;0,0864449
668,2138;0,0862284
669,1780;0,0857142
670,1423;0,085018
671,1065;0,0842832
672,0707;0,0835133
673,0350;0,0826404
673,9992;0,0816206
674,9634;0,0804829
675,9277;0,079333
676,8919;0,0783012
677,8561;0,0774624
678,8204;0,0767988
679,7846;0,0762311
680,7488;0,0756763
681,7131;0,0750897
682,6773;0,0744763
683,6415;0,073876
684,6058;0,0733384
685,5700;0,0728997
686,5342;0,07257
687,4985;0,0723306
688,4627;0,0721419
689,4269;0,0719584
690,3912;0,0717482
691,3554;0,0715043
692,3196;0,071245
693,2839;0,0710015
694,2481;0,0708006
695,2123;0,0706489
696,1766;0,0705271
697,1408;0,0703991
698,1050;0,070231
699,0693;0,0700096
700,0335;0,0697492
700,9977;0,069481
701,9620;0,0692342
702,9262;0,0690192
703,8904;0,0688221
704,8547;0,068616
705,8189;0,0683737
706,7831;0,0680799
707,7474;0,0677342
708,7116;0,0673482
709,6758;0,0669402
710,6401;0,0665314
711,6043;0,0661434
712,5685;0,0657936
713,5328;0,0654891
714,4970;0,0652214
715,4612;0,0649044
716,4255;0,0646403
717,3897;0,0643265
718,3539;0,0639401
719,3182;0,063479
720,2824;0,0629652
721,2466;0,0624359
722,2109;0,0619245
723,1751;0,0614457
724,1393;0,0609934
725,1036;0,0605509
726,0678;0,0601035
727,0320;0,0596451
727,9963;0,0591786
728,9605;0,0587104
729,9247;0,0582474
730,8890;0,0577976
731,8532;0,057374
732,8174;0,0569936
733,7817;0,0566697
734,7459;0,0564031
735,7101;0,0561773
736,6744;0,0559656
737,6386;0,0557439
738,6028;0,0555031
739,5671;0,0552508
740,5313;0,0550026
741,4955;0,0547702
742,4598;0,054555
743,4240;0,0543515
744,3882;0,0541557
745,3525;0,0539697
746,3167;0,0537983
747,2809;0,0536402
748,2452;0,0534826
749,2094;0,0533051
750,1736;0,0530913
751,1379;0,0528409
752,1021;0,052571
753,0663;0,0523078
754,0306;0,0520722
754,9948;0,0518698
755,9590;0,0516902
756,9233;0,0515161
757,8875;0,0513323
758,8517;0,0511326
759,8160;0,0509192
760,7802;0,0506989
761,7444;0,050477
762,7087;0,0502541
763,6729;0,0500244
764,6371;0,0497799
765,6014;0,049516
766,5656;0,0492382
767,5298;0,0489633
768,4941;0,0487129
769,4583;0,048501
770,4225;0,0483244
771,3868;0,0481611
772,3510;0,0479815
773,3152;0,0477646
774,2795;0,0475099
775,2437;0,0472371
776,2079;0,0469749
777,1722;0,0467458
778,1364;0,0465576
779,1006;0,0464032
780,0649;0,0462674
781,0291;0,0461347
781,9933;0,0459919
782,9576;0,0458294
783,9218;0,0456411
784,8860;0,0454268
785,8503;0,045195
786,8145;0,0449617
787,7787;0,0447461
788,7430;0,0445627
789,7072;0,0444146
790,6714;0,0442929
791,6357;0,0441808
792,5999;0,0440614
793,5641;0,043925
794,5284;0,0437721
795,4926;0,0436132
796,4568;0,0434637
797,4211;0,0433374
798,3853;0,043239
799,3495;0,0431611
800,3138;0,0430855
801,2780;0,0429921
802,2422;0,0428693
803,2065;0,0427214
804,1707;0,0425675
805,1349;0,0424314
806,0992;0,0423283
807,0634;0,0422561
808,0276;0,0421982
808,9919;0,042134
809,9561;0,0420518
810,9203;0,0419551
811,8846;0,0418582
812,8488;0,041776
813,8130;0,0417141
814,7773;0,0416675
815,7415;0,041626
816,7057;0,0415828
817,6700;0,0415385
818,6342;0,0414981
819,5984;0,0414642
820,5627;0,0414314
821,5269;0,0413876
822,4911;0,0413221
823,4554;0,0412336
824,4196;0,0411331
825,3839;0,0410369
826,3481;0,040956
827,3123;0,040888
828,2766;0,040819
829,2408;0,0407342
830,2050;0,0406297
831,1693;0,040518
832,1335;0,0404211
833,0977;0,0403579
834,0620;0,0403319
835,0262;0,04033
835,9904;0,0403292
836,9547;0,0403079
837,9189;0,0402535
838,8831;0,0401629
839,8474;0,0400388
840,8116;0,0398866
841,7758;0,039715
842,7401;0,0395386
843,7043;0,0393776
844,6685;0,0392517
845,6328;0,0391724
846,5970;0,0391364
847,5612;0,039126
848,5255;0,0391158
849,4897;0,0390818
850,4539;0,0390093
851,4182;0,0388974
852,3824;0,0387586
853,3466;0,0386162
854,3109;0,0384989
855,2751;0,0384311
856,2393;0,0384245
857,2036;0,0384718
858,1678;0,0385489
859,1320;0,038625
860,0963;0,0386761
861,0605;0,0386938
862,0247;0,0386858
862,9890;0,0386661
863,9532;0,0386459
864,9174;0,0386278
865,8817;0,0386101
866,8459;0,0385942
867,8101;0,0385905
868,7744;0,0386158
869,7386;0,0386841
870,7028;0,0387961
871,6671;0,0389348
872,6313;0,0390701
873,5955;0,0391707
874,5598;0,0392182
875,5240;0,0392148
876,4882;0,0391827
877,4525;0,0391538
878,4167;0,0391578
879,3809;0,0392113
880,3452;0,039317
881,3094;0,0394689
882,2736;0,0396624
883,2379;0,0399002
884,2021;0,0401913
885,1663;0,0405431
886,1306;0,0409529
887,0948;0,0414047
888,0590;0,0418737
889,0233;0,0423355
889,9875;0,0427743
890,9517;0,0431851
891,9160;0,0435706
892,8802;0,0439344
893,8444;0,0442752
894,8087;0,0445848
895,7729;0,0448467
896,7371;0,0450388
897,7014;0,0451369
898,6656;0,0451223
899,6298;0,0449907
900,5941;0,044757
901,5583;0,0444534
902,5225;0,0441181
903,4868;0,0437814
904,4510;0,0434573
905,4152;0,0431468
906,3795;0,0428493
907,3437;0,0425728
908,3079;0,0423353
909,2722;0,042155
910,2364;0,0420368
911,2007;0,0419674
912,1649;0,0419228
913,1292;0,0418838
914,0934;0,0418474
915,0576;0,0418274
916,0219;0,0418419
916,9861;0,0418996
917,9503;0,0419929
918,9146;0,0421046
919,8788;0,0422206
920,8430;0,0423392
921,8073;0,0424716
922,7715;0,0426311
923,7357;0,0428222
924,7000;0,0430343
925,6642;0,0432467
926,6284;0,043438
927,5927;0,0435964
928,5569;0,0437228
929,5211;0,0438277
930,4854;0,043924
931,4496;0,0440213
932,4138;0,044124
933,3781;0,0442336
934,3423;0,0443525
935,3065;0,0444867
936,2708;0,044645
937,2350;0,0448369
938,1992;0,0450689
939,1635;0,0453424
940,1277;0,0456525
941,0919;0,0459893
942,0562;0,0463406
943,0204;0,0466969
943,9846;0,0470553
944,9489;0,047423
945,9131;0,0478166
946,8773;0,0482584
947,8416;0,0487688
948,8058;0,0493594
949,7700;0,0500286
950,7343;0,0507621
951,6985;0,0515388
952,6627;0,0523385
953,6270;0,0531486
954,5912;0,0539672
955,5554;0,0547997
956,5197;0,055654
957,4839;0,0565339
958,4481;0,0574368
959,4124;0,0583556
960,3766;0,0592826
961,3408;0,0602138
962,3051;0,0611482
963,2693;0,0620848
964,2335;0,0630184
965,1978;0,0639393
966,1620;0,0648386
967,1262;0,0657168
968,0905;0,06659
969,0547;0,0674908
970,0189;0,0684588
970,9832;0,0695291
971,9474;0,070721
972,9116;0,0720358
973,8759;0,0734629
974,8401;0,0749907
975,8043;0,0766144
976,7686;0,0783367
977,7328;0,0801606
978,6970;0,0820796
979,6613;0,084071
980,6255;0,0860971
981,5897;0,0881127
982,5540;0,0900746
983,5182;0,0919485
984,4824;0,0937126
985,4467;0,0953575
986,4109;0,0968858
987,3751;0,0983085
988,3394;0,0996405
989,3036;0,100893
990,2678;0,102067
991,2321;0,103151
992,1963;0,10413
993,1605;0,104996
994,1248;0,105756
995,0890;0,106431
996,0532;0,107054
997,0175;0,107648
997,9817;0,108228
998,9459;0,108801
999,9102;0,109375
1000,8744;0,109966
1001,8386;0,110598
1002,8029;0,111293
1003,7671;0,112066
1004,7313;0,112924
1005,6956;0,113874
1006,6598;0,114927
1007,6240;0,1161
1008,5883;0,117407
1009,5525;0,118844
1010,5167;0,120382
1011,4810;0,121975
1012,4452;0,123567
1013,4094;0,125113
1014,3737;0,126579
1015,3379;0,127942
1016,3021;0,129181
1017,2664;0,130274
1018,2306;0,131196
1019,1948;0,131933
1020,1591;0,132487
1021,1233;0,13288
1022,0875;0,133152
1023,0518;0,133343
1024,0160;0,13349
1024,9802;0,133613
1025,9445;0,133718
1026,9087;0,133799
1027,8729;0,133839
1028,8372;0,133814
1029,8014;0,133695
1030,7656;0,133447
1031,7299;0,13304
1032,6941;0,132447
1033,6583;0,131659
1034,6226;0,130686
1035,5868;0,129565
1036,5510;0,128354
1037,5153;0,12713
1038,4795;0,12597
1039,4437;0,124937
1040,4080;0,124068
1041,3722;0,123366
1042,3364;0,122808
1043,3007;0,122353
1044,2649;0,121957
1045,2291;0,121587
1046,1934;0,12122
1047,1576;0,120841
1048,1218;0,120437
1049,0861;0,119991
1050,0503;0,119479
1051,0145;0,118878
1051,9788;0,11817
1052,9430;0,117353
1053,9072;0,116433
1054,8715;0,11542
1055,8357;0,11432
1056,7999;0,113126
1057,7642;0,11182
1058,7284;0,110381
1059,6926;0,108795
1060,6569;0,107068
1061,6211;0,105232
1062,5853;0,103343
1063,5496;0,101477
1064,5138;0,0997077
1065,4780;0,098096
1066,4423;0,0966743
1067,4065;0,0954441
1068,3707;0,0943818
1069,3350;0,0934485
1070,2992;0,0925999
1071,2634;0,0917918
1072,2277;0,0909829
1073,1919;0,090138
1074,1561;0,0892316
1075,1204;0,0882524
1076,0846;0,0872036
1077,0488;0,0860999
1078,0131;0,0849627
1078,9773;0,083817
1079,9415;0,0826906
1080,9058;0,081614
1081,8700;0,0806168
1082,8342;0,07972
1083,7985;0,0789284
1084,7627;0,078229
1085,7269;0,0775971
1086,6912;0,077009
1087,6554;0,0764542
1088,6196;0,0759389
1089,5839;0,0754816
1090,5481;0,0751031
1091,5123;0,0748164
1092,4766;0,0746223
1093,4408;0,0745112
1094,4050;0,0744666
1095,3693;0,07447
1096,3335;0,0745033
1097,2977;0,0745509
1098,2620;0,0746015
1099,2262;0,0746492
1100,1904;0,0746936
1101,1547;0,0747368
1102,1189;0,0747781
1103,0831;0,0748096
1104,0474;0,0748151
1105,0116;0,074775
1105,9758;0,074675
1106,9401;0,0745121
1107,9043;0,0742941
1108,8685;0,0740309
1109,8328;0,0737231
1110,7970;0,0733556
1111,7612;0,0729028
1112,7255;0,0723431
1113,6897;0,0716755
1114,6539;0,0709274
1115,6182;0,0701479
1116,5824;0,0693905
1117,5466;0,068693
1118,5109;0,0680653
1119,4751;0,06749
1120,4393;0,0669318
1121,4036;0,0663521
1122,3678;0,0657182
1123,3320;0,0650079
1124,2963;0,0642077
1125,2605;0,0633097
1126,2247;0,0623111
1127,1890;0,0612158
1128,1532;0,0600373
1129,1174;0,0587993
1130,0817;0,0575333
1131,0459;0,0562722
1132,0101;0,055045
1132,9744;0,0538749
1133,9386;0,0527815
1134,9028;0,0517854
1135,8671;0,0509114
1136,8313;0,0501859
1137,7955;0,0496296
1138,7598;0,0492503
1139,7240;0,0490384
1140,6882;0,0489714
1141,6525;0,0490221
1142,6167;0,0491682
1143,5809;0,0493963
1144,5452;0,0496991
1145,5094;0,0500687
1146,4736;0,0504909
1147,4379;0,0509449
1148,4021;0,051408
1149,3663;0,0518611
1150,3306;0,0522917
1151,2948;0,0526914
1152,2590;0,0530513
1153,2233;0,0533583
1154,1875;0,0535943
1155,1517;0,0537383
1156,1160;0,0537697
1157,0802;0,0536679
1158,0444;0,0534118
1159,0087;0,0529789
1159,9729;0,052347
1160,9371;0,0514981
1161,9014;0,0504241
1162,8656;0,0491312
1163,8298;0,0476429
1164,7941;0,0460009
1165,7583;0,0442636
1166,7225;0,0425006
1167,6868;0,0407832
1168,6510;0,0391712
1169,6152;0,0377026
1170,5795;0,0363899
1171,5437;0,035225
1172,5079;0,0341904
1173,4722;0,0332702
1174,4364;0,0324548
1175,4006;0,0317396
1176,3649;0,0311212
1177,3291;0,0305943
1178,2933;0,0301529
1179,2576;0,0297914
1180,2218;0,0295036
1181,1860;0,0292807
1182,1503;0,0291094
1183,1145;0,028975
1184,0787;0,0288675
1185,0430;0,0287874
1186,0072;0,0287458
1186,9714;0,0287581
1187,9357;0,0288348
1188,8999;0,0289766
1189,8641;0,0291748
1190,8284;0,0294189
1191,7926;0,0297017
1192,7568;0,0300215
1193,7211;0,0303777
1194,6853;0,0307661
1195,6495;0,0311774
1196,6138;0,0316001
1197,5780;0,0320266
1198,5422;0,0324563
1199,5065;0,0328549
1200,4707;0,033309
1201,4349;0,0337742
1202,3992;0,0342419
1203,3634;0,0346997
1204,3276;0,0351377
1205,2919;0,0355538
1206,2561;0,0359549
1207,2203;0,0363545
1208,1846;0,036768
1209,1488;0,0372093
1210,1130;0,0376888
1211,0773;0,0382136
1212,0415;0,0387879
1213,0057;0,0394129
1213,9700;0,040085
1214,9342;0,0407951
1215,8984;0,0415284
1216,8627;0,0422667
1217,8269;0,042992
1218,7911;0,0436916
1219,7554;0,0443601
1220,7196;0,044999
1221,6838;0,0456128
1222,6481;0,0462045
1223,6123;0,0467725
1224,5765;0,0473108
1225,5408;0,0478122
1226,5050;0,0482717
1227,4692;0,0486879
1228,4335;0,0490629
1229,3977;0,049399
1230,3619;0,0496968
1231,3262;0,0499549
1232,2904;0,0501713
1233,2546;0,0503452
1234,2189;0,0504782
1235,1831;0,0505742
1236,1473;0,0506381
1237,1116;0,0506743
1238,0758;0,0506857
1239,0400;0,0506717
1240,0043;0,0506291
1240,9685;0,0505524
1241,9327;0,0504374
1242,8970;0,0502828
1243,8612;0,0500915
1244,8254;0,0498686
1245,7897;0,049619
1246,7539;0,0493451
1247,7181;0,0490481
1248,6824;0,0487303
1249,6466;0,0483975
1250,6108;0,0480586
1251,5751;0,0477219
1252,5393;0,0473919
1253,5035;0,0470678
1254,4678;0,0467455
1255,4320;0,0464203
1256,3962;0,0460897
1257,3605;0,0457524
1258,3247;0,0454064
1259,2889;0,0450475
1260,2532;0,0446693
1261,2174;0,0442664
1262,1816;0,0438371
1263,1459;0,0433842
1264,1101;0,042914
1265,0743;0,0424336
1266,0386;0,0419481
1267,0028;0,0414597
1267,9670;0,0409673
1268,9313;0,0404679
1269,8955;0,0399584
1270,8597;0,0394376
1271,8240;0,0389067
1272,7882;0,03837
1273,7524;0,0378339
1274,7167;0,0373064
1275,6809;0,0367963
1276,6451;0,0363118
1277,6094;0,0358595
1278,5736;0,0354414
1279,5378;0,0350545
1280,5021;0,0346911
1281,4663;0,0343417
1282,4305;0,0339995
1283,3948;0,033663
1284,3590;0,033337
1285,3232;0,0330301
1286,2875;0,0327515
1287,2517;0,0325076
1288,2159;0,0323004
1289,1802;0,0321284
1290,1444;0,0319887
1291,1086;0,0318804
1292,0729;0,0318051
1293,0371;0,0317665
1294,0013;0,0317684
1294,9656;0,0318121
1295,9298;0,0318947
1296,8940;0,0320101
1297,8583;0,0321518
1298,8225;0,0323154
1299,7867;0,0325001
1300,7510;0,0327072
1301,7152;0,0329389
1302,6794;0,0331958
1303,6437;0,0334777
1304,6079;0,0337846
1305,5721;0,0341166
1306,5364;0,0344723
1307,5006;0,0348473
1308,4648;0,0352335
1309,4291;0,0356223
1310,3933;0,0360072
1311,3575;0,0363861
1312,3218;0,0367579
1313,2860;0,0371172
1314,2502;0,0374496
1315,2145;0,0377309
1316,1787;0,0379348
1317,1429;0,0380426
1318,1072;0,0380539
1319,0714;0,0379891
1320,0356;0,0378826
1320,9999;0,0377666
1321,9641;0,0376598
1322,9283;0,0375659
1323,8926;0,0374807
1324,8568;0,0374013
1325,8210;0,0373299
1326,7853;0,0372717
1327,7495;0,0372291
1328,7137;0,0371976
1329,6780;0,037166
1330,6422;0,0371208
1331,6064;0,0370515
1332,5707;0,0369536
1333,5349;0,0368267
1334,4991;0,0366697
1335,4634;0,0364759
1336,4276;0,0362331
1337,3918;0,0359301
1338,3561;0,0355711
1339,3203;0,0351859
1340,2845;0,0348223
1341,2488;0,0345196
1342,2130;0,034289
1343,1772;0,0341172
1344,1415;0,0339833
1345,1057;0,0338737
1346,0699;0,0337879
1347,0342;0,0337361
1347,9984;0,0337328
1348,9626;0,033788
1349,9269;0,0339017
