TITLE;
DATA TYPE;INFRARED SPECTRUM
ORIGIN;JASCO
OWNER;
DATE;25/02/19
TIME;12:16:16
SPECTROMETER/DATA SYSTEM;
LOCALE;9226
RESOLUTION;
DELTAX;0,964233
XUNITS;1/CM
YUNITS;ABSORBANCE
FIRSTX;  399,1927
LASTX; 4000,6047
NPOINTS;    3736
FIRSTY;     0,12353
MAXY;     0,13613
MINY;     0,00758
XYDATA
399,1927;0,123535
400,1569;0,12242
401,1211;0,120642
402,0854;0,118904
403,0496;0,117661
404,0138;0,117131
404,9781;0,117322
405,9423;0,118037
406,9065;0,118934
407,8708;0,119667
408,8350;0,120043
409,7992;0,120077
410,7635;0,119942
411,7277;0,119844
412,6919;0,119914
413,6562;0,120185
414,6204;0,120644
415,5846;0,121289
416,5489;0,122118
417,5131;0,123032
418,4773;0,123714
419,4416;0,123781
420,4058;0,123198
421,3700;0,122332
422,3343;0,12159
423,2985;0,121204
424,2627;0,121213
425,2270;0,121491
426,1912;0,121801
427,1554;0,121915
428,1197;0,121733
429,0839;0,121343
430,0481;0,120973
431,0124;0,120885
431,9766;0,121222
432,9408;0,12191
433,9051;0,122645
434,8693;0,12302
435,8335;0,122722
436,7978;0,121705
437,7620;0,120202
438,7262;0,118579
439,6905;0,117152
440,6547;0,116094
441,6189;0,115444
442,5832;0,11517
443,5474;0,11524
444,5116;0,115628
445,4759;0,116272
446,4401;0,117011
447,4043;0,117593
448,3686;0,117751
449,3328;0,117334
450,2970;0,116407
451,2613;0,115248
452,2255;0,114216
453,1897;0,113558
454,1540;0,113305
455,1182;0,113299
456,0824;0,11331
457,0467;0,113174
458,0109;0,112882
458,9751;0,112542
459,9394;0,112257
460,9036;0,112039
461,8678;0,111837
462,8321;0,111607
463,7963;0,111355
464,7605;0,111126
465,7248;0,110973
466,6890;0,110927
467,6532;0,110995
468,6175;0,111178
469,5817;0,111478
470,5459;0,111869
471,5102;0,112268
472,4744;0,112543
473,4386;0,112591
474,4029;0,112415
475,3671;0,112126
476,3313;0,111859
477,2956;0,111693
478,2598;0,111621
479,2240;0,111576
480,1883;0,111487
481,1525;0,111341
482,1167;0,111194
483,0810;0,111138
484,0452;0,111232
485,0094;0,111459
485,9737;0,111738
486,9379;0,11199
487,9021;0,112183
488,8664;0,112331
489,8306;0,11246
490,7948;0,112566
491,7591;0,11262
492,7233;0,112598
493,6875;0,112523
494,6518;0,112473
495,6160;0,112538
496,5802;0,11276
497,5445;0,113109
498,5087;0,113487
499,4729;0,113783
500,4372;0,113926
501,4014;0,113915
502,3656;0,113816
503,3299;0,11372
504,2941;0,11369
505,2583;0,11375
506,2226;0,113903
507,1868;0,114149
508,1510;0,114487
509,1153;0,114895
510,0795;0,115319
511,0437;0,115693
512,0080;0,115966
512,9722;0,116137
513,9365;0,116254
514,9007;0,116389
515,8649;0,116597
516,8292;0,116877
517,7934;0,117164
518,7576;0,117367
519,7219;0,117432
520,6861;0,117373
521,6503;0,117254
522,6146;0,117148
523,5788;0,11711
524,5430;0,117161
525,5073;0,117283
526,4715;0,117437
527,4357;0,117572
528,4000;0,117655
529,3642;0,117672
530,3284;0,117625
531,2927;0,117525
532,2569;0,117377
533,2211;0,117182
534,1854;0,116944
535,1496;0,116676
536,1138;0,116405
537,0781;0,116178
538,0423;0,116034
539,0065;0,115997
539,9708;0,116051
540,9350;0,116156
541,8992;0,116262
542,8635;0,116335
543,8277;0,116374
544,7919;0,116406
545,7562;0,116466
546,7204;0,116574
547,6846;0,116711
548,6489;0,116835
549,6131;0,116899
550,5773;0,116894
551,5416;0,116861
552,5058;0,116882
553,4700;0,117034
554,4343;0,117341
555,3985;0,117746
556,3627;0,118127
557,3270;0,118351
558,2912;0,118332
559,2554;0,118072
560,2197;0,117637
561,1839;0,117126
562,1481;0,116615
563,1124;0,116143
564,0766;0,115718
565,0408;0,115337
566,0051;0,115012
566,9693;0,114761
567,9335;0,114598
568,8978;0,114513
569,8620;0,114469
570,8262;0,114416
571,7905;0,114317
572,7547;0,114168
573,7189;0,113993
574,6832;0,113835
575,6474;0,113725
576,6116;0,113669
577,5759;0,113642
578,5401;0,113609
579,5043;0,113545
580,4686;0,113449
581,4328;0,113334
582,3970;0,11322
583,3613;0,113116
584,3255;0,113022
585,2897;0,112931
586,2540;0,112843
587,2182;0,11276
588,1824;0,112688
589,1467;0,112631
590,1109;0,112589
591,0751;0,11255
592,0394;0,112492
593,0036;0,112386
593,9678;0,112212
594,9321;0,111972
595,8963;0,111695
596,8605;0,111431
597,8248;0,111224
598,7890;0,111081
599,7532;0,110969
600,7175;0,110824
601,6817;0,110597
602,6459;0,110286
603,6102;0,10993
604,5744;0,109584
605,5386;0,109275
606,5029;0,10899
607,4671;0,108683
608,4313;0,108321
609,3956;0,107904
610,3598;0,107467
611,3240;0,107057
612,2883;0,106698
613,2525;0,106383
614,2167;0,106076
615,1810;0,105735
616,1452;0,105329
617,1094;0,104841
618,0737;0,104271
619,0379;0,103631
620,0021;0,102943
620,9664;0,102241
621,9306;0,101573
622,8948;0,100987
623,8591;0,100519
624,8233;0,100182
625,7875;0,0999237
626,7518;0,0996796
627,7160;0,0993854
628,6802;0,0990038
629,6445;0,0985357
630,6087;0,0980168
631,5729;0,0974992
632,5372;0,0970313
633,5014;0,0966404
634,4656;0,096326
635,4299;0,0960643
636,3941;0,0958215
637,3583;0,095571
638,3226;0,095303
639,2868;0,0950265
640,2510;0,0947592
641,2153;0,0945132
642,1795;0,0942843
643,1437;0,094051
644,1080;0,0937874
645,0722;0,0934811
646,0364;0,0931441
647,0007;0,0928093
647,9649;0,0925131
648,9291;0,0922756
649,8934;0,0920914
650,8576;0,0919393
651,8218;0,0918015
652,7861;0,0916776
653,7503;0,0915841
654,7145;0,0915433
655,6788;0,0915711
656,6430;0,091668
657,6072;0,0918146
658,5715;0,091969
659,5357;0,0920687
660,4999;0,0920524
661,4642;0,0919
662,4284;0,0916598
663,3926;0,091428
664,3569;0,091292
665,3211;0,091269
666,2853;0,0912662
667,2496;0,0910954
668,2138;0,0906061
669,1780;0,0898348
670,1423;0,0889271
671,1065;0,0880003
672,0707;0,0871173
673,0350;0,086286
673,9992;0,0854702
674,9634;0,0846245
675,9277;0,0837291
676,8919;0,0828005
677,8561;0,0818754
678,8204;0,0809935
679,7846;0,080192
680,7488;0,0795048
681,7131;0,078951
682,6773;0,0785246
683,6415;0,0781944
684,6058;0,0779209
685,5700;0,077673
686,5342;0,0774332
687,4985;0,0771924
688,4627;0,0769423
689,4269;0,0766805
690,3912;0,0764122
691,3554;0,0761525
692,3196;0,0759206
693,2839;0,0757309
694,2481;0,0755851
695,2123;0,0754715
696,1766;0,0753698
697,1408;0,0752581
698,1050;0,0751191
699,0693;0,0749435
700,0335;0,0747319
700,9977;0,0744934
701,9620;0,0742426
702,9262;0,0739941
703,8904;0,0737591
704,8547;0,0735346
705,8189;0,0733069
706,7831;0,0730571
707,7474;0,0727694
708,7116;0,0724389
709,6758;0,0720758
710,6401;0,071703
711,6043;0,0713492
712,5685;0,0710381
713,5328;0,0707782
714,4970;0,0705584
715,4612;0,0705302
716,4255;0,0702667
717,3897;0,0699433
718,3539;0,0695596
719,3182;0,0691386
720,2824;0,0687168
721,2466;0,068325
722,2109;0,0679732
723,1751;0,0676482
724,1393;0,0673224
725,1036;0,0669674
726,0678;0,0665655
727,0320;0,0661165
727,9963;0,0656388
728,9605;0,065163
729,9247;0,0647209
730,8890;0,0643337
731,8532;0,0640045
732,8174;0,0637198
733,7817;0,0634574
734,7459;0,0631977
735,7101;0,0629327
736,6744;0,0626666
737,6386;0,0624101
738,6028;0,0621708
739,5671;0,0619473
740,5313;0,0617307
741,4955;0,0615104
742,4598;0,0612814
743,4240;0,0610464
744,3882;0,0608112
745,3525;0,0605781
746,3167;0,0603405
747,2809;0,0600866
748,2452;0,0598076
749,2094;0,0595064
750,1736;0,059199
751,1379;0,0589068
752,1021;0,0586428
753,0663;0,0584035
754,0306;0,058171
754,9948;0,0579252
755,9590;0,0576588
756,9233;0,0573822
757,8875;0,0571168
758,8517;0,0568804
759,8160;0,0566754
760,7802;0,0564882
761,7444;0,0562981
762,7087;0,0560897
763,6729;0,0558599
764,6371;0,0556162
765,6014;0,0553709
766,5656;0,0551339
767,5298;0,0549096
768,4941;0,054697
769,4583;0,0544905
770,4225;0,0542821
771,3868;0,0540654
772,3510;0,0538395
773,3152;0,0536124
774,2795;0,0533984
775,2437;0,0532112
776,2079;0,0530555
777,1722;0,0529228
778,1364;0,0527956
779,1006;0,0526569
780,0649;0,0524976
781,0291;0,0523179
781,9933;0,0521224
782,9576;0,0519147
783,9218;0,0516958
784,8860;0,0514696
785,8503;0,0512476
786,8145;0,051048
787,7787;0,0508884
788,7430;0,0507744
789,7072;0,0506948
790,6714;0,0506257
791,6357;0,0505431
792,5999;0,050435
793,5641;0,0503061
794,5284;0,0501728
795,4926;0,0500515
796,4568;0,0499501
797,4211;0,0498657
798,3853;0,0497893
799,3495;0,0497137
800,3138;0,0496385
801,2780;0,0495694
802,2422;0,0495139
803,2065;0,0494748
804,1707;0,049447
805,1349;0,0494184
806,0992;0,0493751
807,0634;0,0493076
808,0276;0,0492159
808,9919;0,0491085
809,9561;0,048998
810,9203;0,0488948
811,8846;0,0488027
812,8488;0,0487182
813,8130;0,0486333
814,7773;0,0485402
815,7415;0,0484337
816,7057;0,048313
817,6700;0,0481816
818,6342;0,048047
819,5984;0,0479187
820,5627;0,0478053
821,5269;0,0477106
822,4911;0,0476312
823,4554;0,0475586
824,4196;0,0474844
825,3839;0,0474062
826,3481;0,0473294
827,3123;0,0472631
828,2766;0,0472125
829,2408;0,0471728
830,2050;0,0471303
831,1693;0,0470678
832,1335;0,0469734
833,0977;0,0468445
834,0620;0,0466862
835,0262;0,0465073
835,9904;0,0463161
836,9547;0,0461203
837,9189;0,0459285
838,8831;0,04575
839,8474;0,0455934
840,8116;0,0454622
841,7758;0,0453536
842,7401;0,0452605
843,7043;0,0451757
844,6685;0,0450943
845,6328;0,0450138
846,5970;0,0449319
847,5612;0,0448462
848,5255;0,0447561
849,4897;0,044666
850,4539;0,0445855
851,4182;0,0445247
852,3824;0,0444875
853,3466;0,0444677
854,3109;0,0444521
855,2751;0,0444292
856,2393;0,0443961
857,2036;0,0443603
858,1678;0,0443333
859,1320;0,0443231
860,0963;0,0443302
861,0605;0,0443508
862,0247;0,0443829
862,9890;0,0444308
863,9532;0,0445031
864,9174;0,0446064
865,8817;0,0447395
866,8459;0,0448931
867,8101;0,0450558
868,7744;0,0452206
869,7386;0,0453886
870,7028;0,0455652
871,6671;0,0457529
872,6313;0,0459447
873,5955;0,0461239
874,5598;0,0462698
875,5240;0,0463681
876,4882;0,0464181
877,4525;0,0464343
878,4167;0,046441
879,3809;0,0464637
880,3452;0,046522
881,3094;0,0466279
882,2736;0,046789
883,2379;0,0470131
884,2021;0,0473093
885,1663;0,047684
886,1306;0,0481356
887,0948;0,0486501
888,0590;0,0492043
889,0233;0,0497738
889,9875;0,0503406
890,9517;0,0508959
891,9160;0,051435
892,8802;0,051949
893,8444;0,0524178
894,8087;0,0528118
895,7729;0,053099
896,7371;0,0532552
897,7014;0,0532697
898,6656;0,0531452
899,6298;0,052894
900,5941;0,0525338
901,5583;0,0520862
902,5225;0,0515767
903,4868;0,0510346
904,4510;0,0504895
905,4152;0,049968
906,3795;0,0494902
907,3437;0,0490698
908,3079;0,0487152
909,2722;0,0484307
910,2364;0,0482154
911,2007;0,0480619
912,1649;0,0479558
913,1292;0,0478804
914,0934;0,0478234
915,0576;0,047782
916,0219;0,0477631
916,9861;0,0477777
917,9503;0,0478329
918,9146;0,0479263
919,8788;0,0480476
920,8430;0,0481838
921,8073;0,048325
922,7715;0,0484663
923,7357;0,0486057
924,7000;0,0487416
925,6642;0,0488722
926,6284;0,0489979
927,5927;0,0491234
928,5569;0,0492578
929,5211;0,0494093
930,4854;0,0495804
931,4496;0,0497661
932,4138;0,0499572
933,3781;0,050148
934,3423;0,0503403
935,3065;0,0505448
936,2708;0,0507752
937,2350;0,051043
938,1992;0,0513543
939,1635;0,05171
940,1277;0,0521091
941,0919;0,0525504
942,0562;0,0530327
943,0204;0,0535532
943,9846;0,0541082
944,9489;0,0546946
945,9131;0,0553133
946,8773;0,0559686
947,8416;0,0566672
948,8058;0,0574139
949,7700;0,0582099
950,7343;0,0590532
951,6985;0,0599409
952,6627;0,0608703
953,6270;0,0618382
954,5912;0,0628394
955,5554;0,0638653
956,5197;0,0649062
957,4839;0,0659539
958,4481;0,0670039
959,4124;0,0680542
960,3766;0,0691029
961,3408;0,0701463
962,3051;0,0711801
963,2693;0,072202
964,2335;0,0732138
965,1978;0,074221
966,1620;0,0752304
967,1262;0,0762483
968,0905;0,0772814
969,0547;0,0783397
970,0189;0,0794386
970,9832;0,0805969
971,9474;0,0818326
972,9116;0,0831589
973,8759;0,0845829
974,8401;0,0861082
975,8043;0,0877372
976,7686;0,0894706
977,7328;0,0913024
978,6970;0,0932126
979,6613;0,0951635
980,6255;0,0971005
981,5897;0,0989614
982,5540;0,10069
983,5182;0,102248
984,4824;0,103627
985,4467;0,104839
986,4109;0,105913
987,3751;0,106877
988,3394;0,107748
989,3036;0,108531
990,2678;0,109222
991,2321;0,109822
992,1963;0,110344
993,1605;0,110813
994,1248;0,111257
995,0890;0,111702
996,0532;0,11216
997,0175;0,112632
997,9817;0,113108
998,9459;0,113579
999,9102;0,114041
1000,8744;0,114503
1001,8386;0,114986
1002,8029;0,115517
1003,7671;0,116128
1004,7313;0,11684
1005,6956;0,117666
1006,6598;0,118606
1007,6240;0,119654
1008,5883;0,120803
1009,5525;0,122044
1010,5167;0,123366
1011,4810;0,124747
1012,4452;0,126155
1013,4094;0,127544
1014,3737;0,128867
1015,3379;0,130081
1016,3021;0,131157
1017,2664;0,132084
1018,2306;0,132864
1019,1948;0,133512
1020,1591;0,134047
1021,1233;0,134489
1022,0875;0,134857
1023,0518;0,135169
1024,0160;0,135436
1024,9802;0,135665
1025,9445;0,13586
1026,9087;0,136013
1027,8729;0,13611
1028,8372;0,136128
1029,8014;0,136036
1030,7656;0,135807
1031,7299;0,135421
1032,6941;0,134872
1033,6583;0,134172
1034,6226;0,133345
1035,5868;0,132427
1036,5510;0,131461
1037,5153;0,130491
1038,4795;0,129563
1039,4437;0,128715
1040,4080;0,127971
1041,3722;0,127341
1042,3364;0,126814
1043,3007;0,126364
1044,2649;0,125955
1045,2291;0,12555
1046,1934;0,125116
1047,1576;0,124627
1048,1218;0,124067
1049,0861;0,123423
1050,0503;0,122691
1051,0145;0,121868
1051,9788;0,120959
1052,9430;0,119973
1053,9072;0,118924
1054,8715;0,117824
1055,8357;0,116678
1056,7999;0,115476
1057,7642;0,114202
1058,7284;0,112835
1059,6926;0,111366
1060,6569;0,109804
1061,6211;0,10818
1062,5853;0,106538
1063,5496;0,104924
1064,5138;0,10338
1065,4780;0,101938
1066,4423;0,100616
1067,4065;0,0994208
1068,3707;0,0983409
1069,3350;0,0973519
1070,2992;0,0964187
1071,2634;0,0955054
1072,2277;0,0945845
1073,1919;0,093642
1074,1561;0,0926764
1075,1204;0,0916925
1076,0846;0,0906956
1077,0488;0,0896908
1078,0131;0,0886856
1078,9773;0,0876958
1079,9415;0,0867469
1080,9058;0,0858701
1081,8700;0,0850939
1082,8342;0,0844338
1083,7985;0,083887
1084,7627;0,0834335
1085,7269;0,0830432
1086,6912;0,0826868
1087,6554;0,0823455
1088,6196;0,0820161
1089,5839;0,0817077
1090,5481;0,0814354
1091,5123;0,0812111
1092,4766;0,0810386
1093,4408;0,0809136
1094,4050;0,0808268
1095,3693;0,0807685
1096,3335;0,0807306
1097,2977;0,0807061
1098,2620;0,0806874
1099,2262;0,0806655
1100,1904;0,0806312
1101,1547;0,0805764
1102,1189;0,0804953
1103,0831;0,0803848
1104,0474;0,080244
1105,0116;0,0800735
1105,9758;0,0798748
1106,9401;0,0796491
1107,9043;0,079395
1108,8685;0,0791053
1109,8328;0,0787664
1110,7970;0,0783594
1111,7612;0,0778671
1112,7255;0,077283
1113,6897;0,0766187
1114,6539;0,0759065
1115,6182;0,0751925
1116,5824;0,0745229
1117,5466;0,0739289
1118,5109;0,073415
1119,4751;0,0729566
1120,4393;0,072508
1121,4036;0,0720161
1122,3678;0,0714349
1123,3320;0,0707359
1124,2963;0,0699104
1125,2605;0,0689659
1126,2247;0,0679198
1127,1890;0,0667926
1128,1532;0,0656048
1129,1174;0,064376
1130,0817;0,0631261
1131,0459;0,0618763
1132,0101;0,0606504
1132,9744;0,0594743
1133,9386;0,0583748
1134,9028;0,0573766
1135,8671;0,0565005
1136,8313;0,0557603
1137,7955;0,055162
1138,7598;0,0547049
1139,7240;0,0543838
1140,6882;0,0541915
1141,6525;0,0541185
1142,6167;0,0541524
1143,5809;0,0542755
1144,5452;0,0544662
1145,5094;0,0547029
1146,4736;0,0549707
1147,4379;0,0552659
1148,4021;0,0555944
1149,3663;0,0559644
1150,3306;0,0563766
1151,2948;0,056818
1152,2590;0,0572626
1153,2233;0,0576782
1154,1875;0,0580339
1155,1517;0,0583041
1156,1160;0,0584661
1157,0802;0,0584956
1158,0444;0,058364
1159,0087;0,0580403
1159,9729;0,0574968
1160,9371;0,0567161
1161,9014;0,0556965
1162,8656;0,0544539
1163,8298;0,0530218
1164,7941;0,0514483
1165,7583;0,0497916
1166,7225;0,0481136
1167,6868;0,0464715
1168,6510;0,0449102
1169,6152;0,0434585
1170,5795;0,0421291
1171,5437;0,0409239
1172,5079;0,0398407
1173,4722;0,0388771
1174,4364;0,0380321
1175,4006;0,0373031
1176,3649;0,0366829
1177,3291;0,0361589
1178,2933;0,0357152
1179,2576;0,0353366
1180,2218;0,0350124
1181,1860;0,0347377
1182,1503;0,0345128
1183,1145;0,0343402
1184,0787;0,0342225
1185,0430;0,0341607
1186,0072;0,0341543
1186,9714;0,0342012
1187,9357;0,0342992
1188,8999;0,0344461
1189,8641;0,0346413
1190,8284;0,0348861
1191,7926;0,0351824
1192,7568;0,0355304
1193,7211;0,035927
1194,6853;0,0363642
1195,6495;0,0368308
1196,6138;0,0373158
1197,5780;0,037811
1198,5422;0,0383122
1199,5065;0,0388211
1200,4707;0,0393267
1201,4349;0,0398276
1202,3992;0,0403161
1203,3634;0,0407851
1204,3276;0,0412318
1205,2919;0,0416603
1206,2561;0,0420823
1207,2203;0,0425154
1208,1846;0,0429788
1209,1488;0,0434888
1210,1130;0,0440544
1211,0773;0,0446751
1212,0415;0,0453417
1213,0057;0,04604
1213,9700;0,0467568
1214,9342;0,0474828
1215,8984;0,0482137
1216,8627;0,0489466
1217,8269;0,0496774
1218,7911;0,0503988
1219,7554;0,0511017
1220,7196;0,0517784
1221,6838;0,0524241
1222,6481;0,0530364
1223,6123;0,0536133
1224,5765;0,0541516
1225,5408;0,0546476
1226,5050;0,0550993
1227,4692;0,0555089
1228,4335;0,0558826
1229,3977;0,0562272
1230,3619;0,0565463
1231,3262;0,0568379
1232,2904;0,0570959
1233,2546;0,0573134
1234,2189;0,0574876
1235,1831;0,0576212
1236,1473;0,0577215
1237,1116;0,0577972
1238,0758;0,0578538
1239,0400;0,0578923
1240,0043;0,0579091
1240,9685;0,0578985
1241,9327;0,0578547
1242,8970;0,0577735
1243,8612;0,0576525
1244,8254;0,0574908
1245,7897;0,0572889
1246,7539;0,0570492
1247,7181;0,0567772
1248,6824;0,0564815
1249,6466;0,0561725
1250,6108;0,0558602
1251,5751;0,0555506
1252,5393;0,0552438
1253,5035;0,0549349
1254,4678;0,0546161
1255,4320;0,054281
1256,3962;0,0539269
1257,3605;0,0535558
1258,3247;0,053172
1259,2889;0,0527795
1260,2532;0,052379
1261,2174;0,0519676
1262,1816;0,0515401
1263,1459;0,051091
1264,1101;0,0506161
1265,0743;0,0501124
1266,0386;0,0495772
1267,0028;0,0490082
1267,9670;0,0484049
1268,9313;0,0477712
1269,8955;0,0471157
1270,8597;0,0464503
1271,8240;0,0457863
1272,7882;0,0451309
1273,7524;0,0444871
1274,7167;0,0438557
1275,6809;0,0432388
1276,6451;0,0426402
1277,6094;0,0420636
1278,5736;0,0415101
1279,5378;0,0409773
1280,5021;0,0404623
1281,4663;0,0399647
1282,4305;0,0394891
1283,3948;0,0390423
1284,3590;0,0386299
1285,3232;0,0382536
1286,2875;0,0379121
1287,2517;0,0376048
1288,2159;0,0373339
1289,1802;0,037105
1290,1444;0,0369239
1291,1086;0,0367936
1292,0729;0,0367133
1293,0371;0,0366802
1294,0013;0,0366914
1294,9656;0,0367446
1295,9298;0,0368375
1296,8940;0,0369674
1297,8583;0,0371315
1298,8225;0,0373281
1299,7867;0,0375574
1300,7510;0,0378208
1301,7152;0,0381189
1302,6794;0,0384497
1303,6437;0,038809
1304,6079;0,0391914
1305,5721;0,0395916
1306,5364;0,0400055
1307,5006;0,0404294
1308,4648;0,040859
1309,4291;0,0412897
1310,3933;0,0417164
1311,3575;0,0421335
1312,3218;0,0425345
1313,2860;0,0429105
1314,2502;0,0432501
1315,2145;0,0435388
1316,1787;0,0437614
1317,1429;0,0439059
1318,1072;0,0439685
1319,0714;0,0439581
1320,0356;0,0438941
1320,9999;0,0437995
1321,9641;0,0436927
1322,9283;0,0435841
1323,8926;0,0434781
1324,8568;0,0433767
1325,8210;0,0432816
1326,7853;0,0431928
1327,7495;0,0431067
1328,7137;0,043015
1329,6780;0,0429072
1330,6422;0,0427742
1331,6064;0,0426114
1332,5707;0,0424191
1333,5349;0,0422005
1334,4991;0,0419567
1335,4634;0,041684
1336,4276;0,0413752
1337,3918;0,0410261
1338,3561;0,0406461
1339,3203;0,0402622
1340,2845;0,0399088
1341,2488;0,0396094
1342,2130;0,0393678
1343,1772;0,0391742
1344,1415;0,0390169
1345,1057;0,0388903
1346,0699;0,0387979
1347,0342;0,0387509
1347,9984;0,0387621
1348,9626;0,0388387
1349,9269;0,0389771
