TITLE;
DATA TYPE;INFRARED SPECTRUM
ORIGIN;JASCO
OWNER;
DATE;25/02/19
TIME;12:12:11
SPECTROMETER/DATA SYSTEM;
LOCALE;9226
RESOLUTION;
DELTAX;0,964233
XUNITS;1/CM
YUNITS;ABSORBANCE
FIRSTX;  399,1927
LASTX; 4000,6047
NPOINTS;    3736
FIRSTY;     0,08761
MAXY;     0,10317
MINY;     0,00779
XYDATA
399,1927;0,0876108
400,1569;0,0875133
401,1211;0,0876425
402,0854;0,0879991
403,0496;0,0884607
404,0138;0,0888315
404,9781;0,0889314
405,9423;0,0887025
406,9065;0,0882702
407,8708;0,0878968
408,8350;0,0878412
409,7992;0,0882155
410,7635;0,0889123
411,7277;0,0896462
412,6919;0,0901148
413,6562;0,0901781
414,6204;0,0899292
415,5846;0,0896515
416,5489;0,0897373
417,5131;0,0905236
418,4773;0,0919335
419,4416;0,0932419
420,4058;0,0936538
421,3700;0,0930866
422,3343;0,0920381
423,2985;0,0910665
424,2627;0,0905263
425,2270;0,0904936
426,1912;0,0907844
427,1554;0,0910838
428,1197;0,0911389
429,0839;0,0908858
430,0481;0,0904485
431,0124;0,0900427
431,9766;0,0898533
432,9408;0,0899479
433,9051;0,0902579
434,8693;0,0906171
435,8335;0,0908286
436,7978;0,0907349
437,7620;0,0902742
438,7262;0,0895026
439,6905;0,0885811
440,6547;0,0877362
441,6189;0,0871926
442,5832;0,0870776
443,5474;0,0873404
444,5116;0,0877664
445,4759;0,0881054
446,4401;0,088212
447,4043;0,088094
448,3686;0,0878648
449,3328;0,0876622
450,2970;0,087576
451,2613;0,0876048
452,2255;0,087652
453,1897;0,0875633
454,1540;0,0871911
455,1182;0,0864664
456,0824;0,085467
457,0467;0,0844482
458,0109;0,0837574
458,9751;0,0836172
459,9394;0,0839562
460,9036;0,0844758
461,8678;0,0848563
462,8321;0,0849063
463,7963;0,0846055
464,7605;0,0840819
465,7248;0,0835442
466,6890;0,083186
467,6532;0,0831065
468,6175;0,0832907
469,5817;0,0836366
470,5459;0,0839933
471,5102;0,0842017
472,4744;0,0841545
473,4386;0,0838553
474,4029;0,0834207
475,3671;0,0830118
476,3313;0,0827562
477,2956;0,0827085
478,2598;0,0828505
479,2240;0,0831124
480,1883;0,0834085
481,1525;0,0836713
482,1167;0,0838699
483,0810;0,0840045
484,0452;0,0840881
485,0094;0,0841304
485,9737;0,084138
486,9379;0,0841255
487,9021;0,0841223
488,8664;0,0841668
489,8306;0,0842883
490,7948;0,084488
491,7591;0,0847325
492,7233;0,0849703
493,6875;0,0851623
494,6518;0,0853004
495,6160;0,0853978
496,5802;0,0854656
497,5445;0,0854977
498,5087;0,0854806
499,4729;0,08542
500,4372;0,085362
501,4014;0,0853853
502,3656;0,0855552
503,3299;0,0858734
504,2941;0,0862686
505,2583;0,0866407
506,2226;0,0869186
507,1868;0,087093
508,1510;0,0872064
509,1153;0,0873151
510,0795;0,0874509
511,0437;0,0876103
512,0080;0,0877711
512,9722;0,0879168
513,9365;0,0880462
514,9007;0,0881657
515,8649;0,0882764
516,8292;0,0883702
517,7934;0,0884409
518,7576;0,0884975
519,7219;0,088564
520,6861;0,0886618
521,6503;0,0887934
522,6146;0,0889408
523,5788;0,0890763
524,5430;0,0891767
525,5073;0,0892327
526,4715;0,0892494
527,4357;0,0892382
528,4000;0,0892075
529,3642;0,0891611
530,3284;0,0891016
531,2927;0,0890319
532,2569;0,0889515
533,2211;0,0888538
534,1854;0,0887301
535,1496;0,0885822
536,1138;0,0884334
537,0781;0,0883258
538,0423;0,0883006
539,0065;0,0883716
539,9708;0,0885122
540,9350;0,0886668
541,8992;0,0887794
542,8635;0,0888226
543,8277;0,0888076
544,7919;0,0887716
545,7562;0,0887522
546,7204;0,0887673
547,6846;0,088813
548,6489;0,0888774
549,6131;0,0889576
550,5773;0,0890647
551,5416;0,0892145
552,5058;0,0894147
553,4700;0,0896573
554,4343;0,0899214
555,3985;0,0901805
556,3627;0,0904066
557,3270;0,0905688
558,2912;0,0906327
559,2554;0,0905657
560,2197;0,0903521
561,1839;0,090008
562,1481;0,0895849
563,1124;0,0891542
564,0766;0,0887805
565,0408;0,0885002
566,0051;0,0883163
566,9693;0,0882101
567,9335;0,0881581
568,8978;0,0881433
569,8620;0,0881534
570,8262;0,0881741
571,7905;0,0881846
572,7547;0,0881625
573,7189;0,0880944
574,6832;0,087985
575,6474;0,0878571
576,6116;0,0877399
577,5759;0,087652
578,5401;0,087592
579,5043;0,0875416
580,4686;0,0874797
581,4328;0,0873962
582,3970;0,0872982
583,3613;0,0872043
584,3255;0,0871321
585,2897;0,0870884
586,2540;0,0870682
587,2182;0,0870633
588,1824;0,0870713
589,1467;0,0870971
590,1109;0,0871451
591,0751;0,0872059
592,0394;0,0872504
593,0036;0,087238
593,9678;0,0871383
594,9321;0,0869492
595,8963;0,0867011
596,8605;0,0864437
597,8248;0,086227
598,7890;0,086082
599,7532;0,0860094
600,7175;0,0859812
601,6817;0,0859532
602,6459;0,0858819
603,6102;0,0857367
604,5744;0,0855057
605,5386;0,0851943
606,5029;0,084821
607,4671;0,0844119
608,4313;0,083996
609,3956;0,083601
610,3598;0,0832488
611,3240;0,0829505
612,2883;0,0827015
613,2525;0,0824805
614,2167;0,082254
615,1810;0,081986
616,1452;0,0816497
617,1094;0,0812372
618,0737;0,0807624
619,0379;0,0802519
620,0021;0,0797333
620,9664;0,0792272
621,9306;0,078748
622,8948;0,0783067
623,8591;0,0779099
624,8233;0,0775524
625,7875;0,0772253
626,7518;0,076907
627,7160;0,0765797
628,6802;0,0762381
629,6445;0,0758919
630,6087;0,0755585
631,5729;0,0752536
632,5372;0,0749846
633,5014;0,07475
634,4656;0,0745427
635,4299;0,0743535
636,3941;0,0741725
637,3583;0,0739884
638,3226;0,0737903
639,2868;0,0735693
640,2510;0,0733213
641,2153;0,0730469
642,1795;0,07275
643,1437;0,0724362
644,1080;0,0721129
645,0722;0,0717905
646,0364;0,0714825
647,0007;0,0712025
647,9649;0,0709608
648,9291;0,0707614
649,8934;0,0706041
650,8576;0,0704884
651,8218;0,0704179
652,7861;0,0703985
653,7503;0,0704317
654,7145;0,070507
655,6788;0,0705999
656,6430;0,0706796
657,6072;0,0707223
658,5715;0,0707205
659,5357;0,0706802
660,4999;0,0706109
661,4642;0,0705116
662,4284;0,0703641
663,3926;0,070135
664,3569;0,0697842
665,3211;0,0692756
666,2853;0,0685992
667,2496;0,0678194
668,2138;0,0671296
669,1780;0,0667485
670,1423;0,0666661
671,1065;0,0666661
672,0707;0,0665549
673,0350;0,0662414
673,9992;0,0657133
674,9634;0,0650129
675,9277;0,0642203
676,8919;0,0634243
677,8561;0,062688
678,8204;0,0620365
679,7846;0,0614722
680,7488;0,0609907
681,7131;0,0605844
682,6773;0,0602391
683,6415;0,0599383
684,6058;0,0596731
685,5700;0,0594458
686,5342;0,0592636
687,4985;0,0591262
688,4627;0,0590207
689,4269;0,0589265
690,3912;0,0588289
691,3554;0,0587259
692,3196;0,0586255
693,2839;0,0585361
694,2481;0,0584586
695,2123;0,058386
696,1766;0,0583088
697,1408;0,0582211
698,1050;0,0581247
699,0693;0,058028
700,0335;0,0579411
700,9977;0,0578689
701,9620;0,0578071
702,9262;0,0577419
703,8904;0,0576537
704,8547;0,0575283
705,8189;0,0573615
706,7831;0,0571604
707,7474;0,0569381
708,7116;0,0567061
709,6758;0,0564701
710,6401;0,0562316
711,6043;0,0559924
712,5685;0,0557569
713,5328;0,0555303
714,4970;0,0553129
715,4612;0,0550386
716,4255;0,0548201
717,3897;0,0545766
718,3539;0,0542984
719,3182;0,0539888
720,2824;0,0536649
721,2466;0,0533507
722,2109;0,0530649
723,1751;0,0528119
724,1393;0,0525812
725,1036;0,0523525
726,0678;0,0521043
727,0320;0,0518223
727,9963;0,0515064
728,9605;0,0511723
729,9247;0,050846
730,8890;0,0505519
731,8532;0,050303
732,8174;0,0500958
733,7817;0,0499155
734,7459;0,0497456
735,7101;0,0495766
736,6744;0,0494076
737,6386;0,04924
738,6028;0,0490704
739,5671;0,0488904
740,5313;0,0486931
741,4955;0,0484832
742,4598;0,0482794
743,4240;0,0481044
744,3882;0,0479692
745,3525;0,0478611
746,3167;0,047747
747,2809;0,0475907
748,2452;0,0473751
749,2094;0,0471133
750,1736;0,0468409
751,1379;0,0465953
752,1021;0,0463934
753,0663;0,0462249
754,0306;0,0460634
754,9948;0,0458862
755,9590;0,0456899
756,9233;0,0454894
757,8875;0,0453039
758,8517;0,0451414
759,8160;0,0449933
760,7802;0,0448417
761,7444;0,0446728
762,7087;0,044484
763,6729;0,0442824
764,6371;0,044077
765,6014;0,0438735
766,5656;0,043676
767,5298;0,0434904
768,4941;0,0433254
769,4583;0,043185
770,4225;0,0430608
771,3868;0,0429314
772,3510;0,0427733
773,3152;0,0425772
774,2795;0,0423569
775,2437;0,0421434
776,2079;0,0419665
777,1722;0,0418363
778,1364;0,0417382
779,1006;0,0416428
780,0649;0,0415241
781,0291;0,0413729
781,9933;0,0411976
782,9576;0,0410156
783,9218;0,0408423
784,8860;0,0406864
785,8503;0,0405495
786,8145;0,0404301
787,7787;0,0403248
788,7430;0,0402284
789,7072;0,0401344
790,6714;0,0400379
791,6357;0,039939
792,5999;0,0398442
793,5641;0,0397631
794,5284;0,0397014
795,4926;0,0396576
796,4568;0,0396232
797,4211;0,0395881
798,3853;0,039546
799,3495;0,0394951
800,3138;0,0394356
801,2780;0,0393657
802,2422;0,039282
803,2065;0,0391837
804,1707;0,0390769
805,1349;0,0389748
806,0992;0,0388921
807,0634;0,0388366
808,0276;0,0388042
808,9919;0,0387817
809,9561;0,0387535
810,9203;0,0387093
811,8846;0,0386475
812,8488;0,0385721
813,8130;0,0384887
814,7773;0,0384019
815,7415;0,0383155
816,7057;0,0382338
817,6700;0,038162
818,6342;0,0381029
819,5984;0,0380539
820,5627;0,038007
821,5269;0,0379528
822,4911;0,0378857
823,4554;0,0378076
824,4196;0,0377263
825,3839;0,0376509
826,3481;0,0375865
827,3123;0,0375312
828,2766;0,0374781
829,2408;0,037419
830,2050;0,0373484
831,1693;0,0372653
832,1335;0,0371722
833,0977;0,0370729
834,0620;0,0369691
835,0262;0,0368593
835,9904;0,0367393
836,9547;0,0366051
837,9189;0,0364569
838,8831;0,0363012
839,8474;0,0361486
840,8116;0,0360092
841,7758;0,0358875
842,7401;0,035781
843,7043;0,0356832
844,6685;0,0355882
845,6328;0,0354954
846,5970;0,0354089
847,5612;0,0353345
848,5255;0,0352756
849,4897;0,0352309
850,4539;0,035195
851,4182;0,0351614
852,3824;0,0351249
853,3466;0,0350843
854,3109;0,035043
855,2751;0,0350084
856,2393;0,0349886
857,2036;0,0349882
858,1678;0,0350046
859,1320;0,0350276
860,0963;0,035044
861,0605;0,0350446
862,0247;0,0350301
862,9890;0,0350121
863,9532;0,0350077
864,9174;0,0350312
865,8817;0,0350875
866,8459;0,0351707
867,8101;0,0352684
868,7744;0,0353675
869,7386;0,0354588
870,7028;0,0355384
871,6671;0,0356053
872,6313;0,03566
873,5955;0,0357044
874,5598;0,0357426
875,5240;0,0357827
876,4882;0,0358348
877,4525;0,0359075
878,4167;0,0360032
879,3809;0,0361162
880,3452;0,0362354
881,3094;0,0363517
882,2736;0,0364651
883,2379;0,0365887
884,2021;0,0367454
885,1663;0,0369589
886,1306;0,0372428
887,0948;0,0375945
888,0590;0,0379958
889,0233;0,0384202
889,9875;0,0388439
890,9517;0,0392522
891,9160;0,03964
892,8802;0,0400061
893,8444;0,040345
894,8087;0,0406429
895,7729;0,040878
896,7371;0,0410272
897,7014;0,0410729
898,6656;0,0410082
899,6298;0,0408371
900,5941;0,0405729
901,5583;0,0402353
902,5225;0,0398488
903,4868;0,03944
904,4510;0,0390344
905,4152;0,0386531
906,3795;0,0383093
907,3437;0,0380089
908,3079;0,0377532
909,2722;0,0375423
910,2364;0,0373761
911,2007;0,0372539
912,1649;0,0371719
913,1292;0,0371237
914,0934;0,0371032
915,0576;0,0371074
916,0219;0,037137
916,9861;0,0371933
917,9503;0,0372738
918,9146;0,0373708
919,8788;0,0374746
920,8430;0,0375786
921,8073;0,0376823
922,7715;0,0377896
923,7357;0,0379034
924,7000;0,0380209
925,6642;0,038134
926,6284;0,0382327
927,5927;0,0383119
928,5569;0,0383737
929,5211;0,038428
930,4854;0,0384887
931,4496;0,0385692
932,4138;0,0386785
933,3781;0,0388184
934,3423;0,0389829
935,3065;0,039161
936,2708;0,0393425
937,2350;0,0395239
938,1992;0,0397106
939,1635;0,039914
940,1277;0,0401446
941,0919;0,040407
942,0562;0,0406999
943,0204;0,0410209
943,9846;0,0413714
944,9489;0,0417573
945,9131;0,0421842
946,8773;0,0426525
947,8416;0,0431559
948,8058;0,0436858
949,7700;0,0442368
950,7343;0,0448093
951,6985;0,0454075
952,6627;0,0460342
953,6270;0,0466886
954,5912;0,0473677
955,5554;0,0480702
956,5197;0,0487976
957,4839;0,049552
958,4481;0,0503303
959,4124;0,0511213
960,3766;0,0519084
961,3408;0,0526761
962,3051;0,0534171
963,2693;0,0541343
964,2335;0,0548383
965,1978;0,0555417
966,1620;0,0562542
967,1262;0,0569823
968,0905;0,0577301
969,0547;0,0585035
970,0189;0,0593112
970,9832;0,0601652
971,9474;0,0610782
972,9116;0,062061
973,8759;0,0631201
974,8401;0,064257
975,8043;0,0654695
976,7686;0,0667528
977,7328;0,0680997
978,6970;0,0694989
979,6613;0,0709311
980,6255;0,0723673
981,5897;0,0737702
982,5540;0,0750999
983,5182;0,0763231
984,4824;0,0774205
985,4467;0,0783902
986,4109;0,0792445
987,3751;0,0800032
988,3394;0,0806848
989,3036;0,0813003
990,2678;0,0818515
991,2321;0,0823332
992,1963;0,0827402
993,1605;0,0830742
994,1248;0,0833493
995,0890;0,0835913
996,0532;0,0838314
997,0175;0,0840965
997,9817;0,0844008
998,9459;0,0847438
999,9102;0,0851153
1000,8744;0,0855039
1001,8386;0,0859058
1002,8029;0,0863283
1003,7671;0,0867873
1004,7313;0,0873015
1005,6956;0,0878876
1006,6598;0,0885562
1007,6240;0,0893123
1008,5883;0,0901544
1009,5525;0,0910749
1010,5167;0,092059
1011,4810;0,0930846
1012,4452;0,094124
1013,4094;0,0951471
1014,3737;0,0961266
1015,3379;0,0970423
1016,3021;0,0978836
1017,2664;0,0986487
1018,2306;0,0993415
1019,1948;0,0999673
1020,1591;0,10053
1021,1233;0,10103
1022,0875;0,101468
1023,0518;0,101849
1024,0160;0,102178
1024,9802;0,102463
1025,9445;0,10271
1026,9087;0,102917
1027,8729;0,103074
1028,8372;0,103164
1029,8014;0,103168
1030,7656;0,103067
1031,7299;0,102852
1032,6941;0,10252
1033,6583;0,102075
1034,6226;0,101527
1035,5868;0,100889
1036,5510;0,100184
1037,5153;0,0994502
1038,4795;0,0987317
1039,4437;0,0980766
1040,4080;0,0975209
1041,3722;0,0970776
1042,3364;0,0967325
1043,3007;0,0964501
1044,2649;0,0961883
1045,2291;0,0959117
1046,1934;0,095599
1047,1576;0,0952415
1048,1218;0,0948345
1049,0861;0,0943713
1050,0503;0,0938413
1051,0145;0,0932353
1051,9788;0,092553
1052,9430;0,0918068
1053,9072;0,0910176
1054,8715;0,0902049
1055,8357;0,0893751
1056,7999;0,0885157
1057,7642;0,0875994
1058,7284;0,0865965
1059,6926;0,0854905
1060,6569;0,084288
1061,6211;0,0830198
1062,5853;0,0817317
1063,5496;0,0804718
1064,5138;0,0792803
1065,4780;0,078184
1066,4423;0,0771968
1067,4065;0,07632
1068,3707;0,0755432
1069,3350;0,0748442
1070,2992;0,0741914
1071,2634;0,073549
1072,2277;0,0728866
1073,1919;0,0721873
1074,1561;0,0714516
1075,1204;0,0706947
1076,0846;0,0699383
1077,0488;0,0692006
1078,0131;0,0684914
1078,9773;0,0678131
1079,9415;0,067167
1080,9058;0,0665609
1081,8700;0,0660112
1082,8342;0,0655383
1083,7985;0,0651569
1084,7627;0,0648657
1085,7269;0,0646457
1086,6912;0,0644667
1087,6554;0,0643003
1088,6196;0,064132
1089,5839;0,0639646
1090,5481;0,0638129
1091,5123;0,0636925
1092,4766;0,063609
1093,4408;0,0635551
1094,4050;0,0635142
1095,3693;0,0634689
1096,3335;0,0634084
1097,2977;0,063332
1098,2620;0,0632461
1099,2262;0,0631592
1100,1904;0,0630757
1101,1547;0,0629919
1102,1189;0,0628971
1103,0831;0,0627774
1104,0474;0,0626215
1105,0116;0,0624263
1105,9758;0,0621987
1106,9401;0,0619516
1107,9043;0,0616973
1108,8685;0,0614394
1109,8328;0,0611689
1110,7970;0,0608665
1111,7612;0,0605126
1112,7255;0,0600981
1113,6897;0,0596326
1114,6539;0,0591438
1115,6182;0,0586688
1116,5824;0,0582406
1117,5466;0,0578766
1118,5109;0,0575731
1119,4751;0,0573086
1120,4393;0,0570506
1121,4036;0,0567637
1122,3678;0,0564156
1123,3320;0,0559798
1124,2963;0,0554385
1125,2605;0,0547846
1126,2247;0,0540233
1127,1890;0,0531723
1128,1532;0,0522583
1129,1174;0,0513118
1130,0817;0,0503606
1131,0459;0,049427
1132,0101;0,048527
1132,9744;0,0476735
1133,9386;0,0468795
1134,9028;0,0461597
1135,8671;0,0455295
1136,8313;0,045001
1137,7955;0,0445789
1138,7598;0,0442589
1139,7240;0,0440297
1140,6882;0,0438772
1141,6525;0,0437895
1142,6167;0,0437591
1143,5809;0,0437804
1144,5452;0,0438472
1145,5094;0,0439497
1146,4736;0,0440768
1147,4379;0,044221
1148,4021;0,0443818
1149,3663;0,0445664
1150,3306;0,044783
1151,2948;0,0450329
1152,2590;0,0453045
1153,2233;0,0455731
1154,1875;0,0458061
1155,1517;0,0459701
1156,1160;0,0460365
1157,0802;0,0459832
1158,0444;0,0457943
1159,0087;0,0454582
1159,9729;0,0449667
1160,9371;0,0443157
1161,9014;0,0435066
1162,8656;0,0425484
1163,8298;0,0414594
1164,7941;0,0402678
1165,7583;0,03901
1166,7225;0,0377275
1167,6868;0,0364615
1168,6510;0,0352476
1169,6152;0,0341124
1170,5795;0,0330722
1171,5437;0,0321343
1172,5079;0,0313
1173,4722;0,0305667
1174,4364;0,0299304
1175,4006;0,0293857
1176,3649;0,028926
1177,3291;0,0285425
1178,2933;0,0282248
1179,2576;0,0279625
1180,2218;0,0277468
1181,1860;0,0275734
1182,1503;0,0274427
1183,1145;0,027358
1184,0787;0,027323
1185,0430;0,0273389
1186,0072;0,0274043
1186,9714;0,0275163
1187,9357;0,0276727
1188,8999;0,0278726
1189,8641;0,0281153
1190,8284;0,0283979
1191,7926;0,0287141
1192,7568;0,029053
1193,7211;0,0294012
1194,6853;0,0297453
1195,6495;0,0300742
1196,6138;0,0303822
1197,5780;0,0306699
1198,5422;0,0309441
1199,5065;0,0312102
1200,4707;0,0314874
1201,4349;0,0317751
1202,3992;0,0320717
1203,3634;0,0323707
1204,3276;0,0326647
1205,2919;0,0329502
1206,2561;0,0332307
1207,2203;0,0335164
1208,1846;0,0338224
1209,1488;0,034164
1210,1130;0,0345524
1211,0773;0,0349915
1212,0415;0,0354764
1213,0057;0,0359951
1213,9700;0,0365328
1214,9342;0,0370767
1215,8984;0,0376192
1216,8627;0,038158
1217,8269;0,0386931
1218,7911;0,0392235
1219,7554;0,0397454
1220,7196;0,0402521
1221,6838;0,0407364
1222,6481;0,0411926
1223,6123;0,0416175
1224,5765;0,04201
1225,5408;0,042371
1226,5050;0,0427022
1227,4692;0,0430053
1228,4335;0,0432817
1229,3977;0,0435321
1230,3619;0,0437558
1231,3262;0,0439523
1232,2904;0,044122
1233,2546;0,0442667
1234,2189;0,04439
1235,1831;0,0444952
1236,1473;0,0445845
1237,1116;0,0446579
1238,0758;0,0447144
1239,0400;0,0447528
1240,0043;0,0447719
1240,9685;0,0447703
1241,9327;0,0447452
1242,8970;0,0446931
1243,8612;0,0446105
1244,8254;0,0444963
1245,7897;0,0443521
1246,7539;0,0441821
1247,7181;0,0439905
1248,6824;0,0437807
1249,6466;0,0435551
1250,6108;0,0433167
1251,5751;0,0430703
1252,5393;0,0428219
1253,5035;0,0425767
1254,4678;0,0423356
1255,4320;0,0420944
1256,3962;0,0418452
1257,3605;0,0415803
1258,3247;0,041296
1259,2889;0,0409937
1260,2532;0,0406784
1261,2174;0,0403549
1262,1816;0,0400241
1263,1459;0,039683
1264,1101;0,0393261
1265,0743;0,038948
1266,0386;0,0385457
1267,0028;0,0381183
1267,9670;0,0376674
1268,9313;0,0371961
1269,8955;0,0367093
1270,8597;0,0362133
1271,8240;0,0357146
1272,7882;0,0352184
1273,7524;0,0347282
1274,7167;0,0342462
1275,6809;0,0337745
1276,6451;0,0333165
1277,6094;0,032876
1278,5736;0,0324552
1279,5378;0,0320535
1280,5021;0,0316676
1281,4663;0,0312936
1282,4305;0,0309295
1283,3948;0,030577
1284,3590;0,0302411
1285,3232;0,0299293
1286,2875;0,0296502
1287,2517;0,0294113
1288,2159;0,029217
1289,1802;0,0290675
1290,1444;0,0289579
1291,1086;0,0288807
1292,0729;0,0288291
1293,0371;0,0287997
1294,0013;0,028794
1294,9656;0,0288167
1295,9298;0,0288722
1296,8940;0,0289617
1297,8583;0,029083
1298,8225;0,0292319
1299,7867;0,029405
1300,7510;0,0296008
1301,7152;0,0298195
1302,6794;0,0300616
1303,6437;0,0303259
1304,6079;0,0306093
1305,5721;0,0309072
1306,5364;0,0312139
1307,5006;0,0315242
1308,4648;0,031834
1309,4291;0,032141
1310,3933;0,0324445
1311,3575;0,0327444
1312,3218;0,0330383
1313,2860;0,0333202
1314,2502;0,0335795
1315,2145;0,0338017
1316,1787;0,0339726
1317,1429;0,0340815
1318,1072;0,0341265
1319,0714;0,0341162
1320,0356;0,0340673
1320,9999;0,033998
1321,9641;0,0339221
1322,9283;0,0338471
1323,8926;0,0337761
1324,8568;0,0337108
1325,8210;0,0336519
1326,7853;0,0335986
1327,7495;0,0335467
1328,7137;0,0334892
1329,6780;0,0334182
1330,6422;0,0333279
1331,6064;0,0332161
1332,5707;0,0330839
1333,5349;0,0329324
1334,4991;0,0327604
1335,4634;0,0325627
1336,4276;0,0323326
1337,3918;0,032068
