TITLE;
DATA TYPE;INFRARED SPECTRUM
ORIGIN;JASCO
OWNER;
DATE;25/02/19
TIME;12:25:49
SPECTROMETER/DATA SYSTEM;
LOCALE;9226
RESOLUTION;
DELTAX;0,964233
XUNITS;1/CM
YUNITS;ABSORBANCE
FIRSTX;  399,1927
LASTX; 4000,6047
NPOINTS;    3736
FIRSTY;     0,09662
MAXY;     0,11733
MINY;     0,00518
XYDATA
399,1927;0,0966237
400,1569;0,0967732
401,1211;0,0966318
402,0854;0,0963073
403,0496;0,0959226
404,0138;0,0955573
404,9781;0,0952453
405,9423;0,0949921
406,9065;0,0947972
407,8708;0,0946755
408,8350;0,0946735
409,7992;0,0948678
410,7635;0,0953321
411,7277;0,0960796
412,6919;0,0970275
413,6562;0,0980267
414,6204;0,0989255
415,5846;0,0996012
416,5489;0,0999395
417,5131;0,099817
418,4773;0,0991751
419,4416;0,0981758
420,4058;0,0971747
421,3700;0,0964649
422,3343;0,0961733
423,2985;0,0963337
424,2627;0,0969162
425,2270;0,0977858
426,1912;0,0986918
427,1554;0,0993531
428,1197;0,0995908
429,0839;0,0994046
430,0481;0,0989565
431,0124;0,0984865
431,9766;0,0982055
432,9408;0,0982069
433,9051;0,0984319
434,8693;0,0986978
435,8335;0,0987718
436,7978;0,0984685
437,7620;0,0977271
438,7262;0,0966331
439,6905;0,0953839
440,6547;0,0942304
441,6189;0,0934093
442,5832;0,0930675
443,5474;0,0932016
444,5116;0,0936644
445,4759;0,0942466
446,4401;0,0947638
447,4043;0,0950899
448,3686;0,0951539
449,3328;0,0949428
450,2970;0,0945217
451,2613;0,0940313
452,2255;0,0936295
453,1897;0,0933965
454,1540;0,0932753
455,1182;0,0930943
456,0824;0,0926705
457,0467;0,0919512
458,0109;0,0910995
458,9751;0,0904053
459,9394;0,0900645
460,9036;0,0900579
461,8678;0,0902269
462,8321;0,0904137
463,7963;0,090539
464,7605;0,0906019
465,7248;0,0906325
466,6890;0,0906436
467,6532;0,0906199
468,6175;0,0905512
469,5817;0,0904699
470,5459;0,0904522
471,5102;0,0905687
472,4744;0,0908101
473,4386;0,0910606
474,4029;0,0911684
475,3671;0,0910513
476,3313;0,0907455
477,2956;0,0903769
478,2598;0,0900949
479,2240;0,0900027
480,1883;0,0901139
481,1525;0,0903531
482,1167;0,0906015
483,0810;0,0907604
484,0452;0,0907983
485,0094;0,0907558
485,9737;0,0907045
486,9379;0,090695
487,9021;0,0907355
488,8664;0,0908072
489,8306;0,0908946
490,7948;0,0910053
491,7591;0,0911655
492,7233;0,0913957
493,6875;0,0916866
494,6518;0,0919959
495,6160;0,092271
496,5802;0,0924784
497,5445;0,0926179
498,5087;0,0927175
499,4729;0,0928141
500,4372;0,0929325
501,4014;0,0930749
502,3656;0,0932255
503,3299;0,0933687
504,2941;0,0935057
505,2583;0,0936546
506,2226;0,0938362
507,1868;0,0940582
508,1510;0,094308
509,1153;0,0945596
510,0795;0,0947882
511,0437;0,0949819
512,0080;0,0951428
512,9722;0,0952795
513,9365;0,0954011
514,9007;0,0955151
515,8649;0,0956284
516,8292;0,095745
517,7934;0,0958588
518,7576;0,0959509
519,7219;0,095999
520,6861;0,0959953
521,6503;0,0959588
522,6146;0,0959298
523,5788;0,095953
524,5430;0,0960543
525,5073;0,0962215
526,4715;0,0964056
527,4357;0,0965486
528,4000;0,0966152
529,3642;0,0966026
530,3284;0,0965272
531,2927;0,0964079
532,2569;0,0962612
533,2211;0,0961062
534,1854;0,0959672
535,1496;0,0958679
536,1138;0,0958198
537,0781;0,0958161
538,0423;0,0958385
539,0065;0,0958713
539,9708;0,0959107
540,9350;0,0959606
541,8992;0,0960203
542,8635;0,096078
543,8277;0,0961169
544,7919;0,096131
545,7562;0,0961343
546,7204;0,0961527
547,6846;0,0962028
548,6489;0,0962779
549,6131;0,0963559
550,5773;0,0964244
551,5416;0,0964998
552,5058;0,0966229
553,4700;0,09683
554,4343;0,0971207
555,3985;0,0974464
556,3627;0,0977292
557,3270;0,0978981
558,2912;0,0979178
559,2554;0,0977936
560,2197;0,0975565
561,1839;0,0972454
562,1481;0,0968963
563,1124;0,0965414
564,0766;0,096208
565,0408;0,0959173
566,0051;0,0956817
566,9693;0,095507
567,9335;0,0953956
568,8978;0,0953463
569,8620;0,0953491
570,8262;0,0953794
571,7905;0,0954019
572,7547;0,0953844
573,7189;0,0953144
574,6832;0,0952076
575,6474;0,0950981
576,6116;0,0950161
577,5759;0,0949682
578,5401;0,0949366
579,5043;0,0948971
580,4686;0,0948384
581,4328;0,094766
582,3970;0,0946898
583,3613;0,0946087
584,3255;0,0945081
585,2897;0,0943742
586,2540;0,0942118
587,2182;0,0940485
588,1824;0,0939202
589,1467;0,0938472
590,1109;0,0938193
591,0751;0,0937985
592,0394;0,0937391
593,0036;0,0936139
593,9678;0,0934292
594,9321;0,0932202
595,8963;0,0930346
596,8605;0,0929126
597,8248;0,0928709
598,7890;0,0928912
599,7532;0,0929209
600,7175;0,0928921
601,6817;0,0927527
602,6459;0,0924942
603,6102;0,0921548
604,5744;0,0917965
605,5386;0,0914693
606,5029;0,0911845
607,4671;0,0909151
608,4313;0,0906215
609,3956;0,0902842
610,3598;0,0899181
611,3240;0,0895599
612,2883;0,0892392
613,2525;0,0889566
614,2167;0,0886852
615,1810;0,0883899
616,1452;0,0880514
617,1094;0,0876747
618,0737;0,0872784
619,0379;0,0868736
620,0021;0,0864536
620,9664;0,0860034
621,9306;0,0855195
622,8948;0,0850232
623,8591;0,0845562
624,8233;0,0841711
625,7875;0,0838664
626,7518;0,0836254
627,7160;0,0834063
628,6802;0,0831669
629,6445;0,0828815
630,6087;0,0825492
631,5729;0,0821873
632,5372;0,0818231
633,5014;0,0814828
634,4656;0,0811831
635,4299;0,0809244
636,3941;0,0806895
637,3583;0,0804496
638,3226;0,0801771
639,2868;0,0798586
640,2510;0,0795017
641,2153;0,0791286
642,1795;0,0787627
643,1437;0,0784163
644,1080;0,0780891
645,0722;0,0777763
646,0364;0,0774788
647,0007;0,0772059
647,9649;0,0769686
648,9291;0,0767699
649,8934;0,0766012
650,8576;0,0764503
651,8218;0,0763124
652,7861;0,0761963
653,7503;0,0761193
654,7145;0,0760967
655,6788;0,0761329
656,6430;0,0762166
657,6072;0,0763233
658,5715;0,0764189
659,5357;0,0764673
660,4999;0,0764451
661,4642;0,0763598
662,4284;0,0762548
663,3926;0,076187
664,3569;0,076182
665,3211;0,0761819
666,2853;0,0760204
667,2496;0,0755057
668,2138;0,0746694
669,1780;0,0738286
670,1423;0,0731639
671,1065;0,072594
672,0707;0,0720202
673,0350;0,0713946
673,9992;0,070688
674,9634;0,0698995
675,9277;0,0690758
676,8919;0,0682937
677,8561;0,0676102
678,8204;0,0670359
679,7846;0,0665498
680,7488;0,0661288
681,7131;0,0657595
682,6773;0,0654386
683,6415;0,0651671
684,6058;0,0649491
685,5700;0,0647901
686,5342;0,0646907
687,4985;0,0646389
688,4627;0,0646065
689,4269;0,0645635
690,3912;0,0644885
691,3554;0,0643785
692,3196;0,064248
693,2839;0,0641198
694,2481;0,0640135
695,2123;0,0639372
696,1766;0,0638848
697,1408;0,0638391
698,1050;0,0637792
699,0693;0,0636895
700,0335;0,0635652
700,9977;0,0634137
701,9620;0,0632486
702,9262;0,0630822
703,8904;0,0629232
704,8547;0,062768
705,8189;0,06261
706,7831;0,0624437
707,7474;0,0622681
708,7116;0,0620849
709,6758;0,0618956
710,6401;0,0616988
711,6043;0,0614912
712,5685;0,0612694
713,5328;0,0610317
714,4970;0,0607788
715,4612;0,0607206
716,4255;0,0603988
717,3897;0,0600524
718,3539;0,0597
719,3182;0,059369
720,2824;0,0590847
721,2466;0,0588558
722,2109;0,0586688
723,1751;0,0584935
724,1393;0,058297
725,1036;0,0580551
726,0678;0,0577575
727,0320;0,0574087
727,9963;0,0570238
728,9605;0,0566245
729,9247;0,0562347
730,8890;0,055877
731,8532;0,0555701
732,8174;0,0553234
733,7817;0,0551328
734,7459;0,0549791
735,7101;0,0548335
736,6744;0,0546678
737,6386;0,0544656
738,6028;0,0542278
739,5671;0,0539697
740,5313;0,0537133
741,4955;0,0534769
742,4598;0,0532703
743,4240;0,0530929
744,3882;0,0529357
745,3525;0,052783
746,3167;0,0526157
747,2809;0,0524165
748,2452;0,0521781
749,2094;0,051909
750,1736;0,0516324
751,1379;0,0513754
752,1021;0,051155
753,0663;0,0509678
754,0306;0,0507936
754,9948;0,0506092
755,9590;0,0504039
756,9233;0,0501851
757,8875;0,0499709
758,8517;0,0497759
759,8160;0,049601
760,7802;0,0494341
761,7444;0,0492601
762,7087;0,0490709
763,6729;0,0488694
764,6371;0,0486652
765,6014;0,0484676
766,5656;0,0482812
767,5298;0,0481059
768,4941;0,0479386
769,4583;0,047774
770,4225;0,0476059
771,3868;0,0474293
772,3510;0,0472445
773,3152;0,0470593
774,2795;0,0468871
775,2437;0,0467387
776,2079;0,046614
777,1722;0,0464989
778,1364;0,0463714
779,1006;0,0462139
780,0649;0,0460227
781,0291;0,0458104
781,9933;0,0455983
782,9576;0,045406
783,9218;0,045244
784,8860;0,0451122
785,8503;0,0450043
786,8145;0,0449124
787,7787;0,0448304
788,7430;0,0447545
789,7072;0,0446808
790,6714;0,0446048
791,6357;0,0445206
792,5999;0,0444234
793,5641;0,0443118
794,5284;0,0441908
795,4926;0,0440713
796,4568;0,0439666
797,4211;0,0438856
798,3853;0,0438279
799,3495;0,0437836
800,3138;0,0437389
801,2780;0,0436846
802,2422;0,0436222
803,2065;0,0435614
804,1707;0,0435125
805,1349;0,0434775
806,0992;0,043447
807,0634;0,0434065
808,0276;0,0433456
808,9919;0,0432656
809,9561;0,0431785
810,9203;0,0430988
811,8846;0,0430335
812,8488;0,0429774
813,8130;0,0429163
814,7773;0,0428353
815,7415;0,0427282
816,7057;0,0426008
817,6700;0,0424692
818,6342;0,0423519
819,5984;0,0422619
820,5627;0,0422011
821,5269;0,0421595
822,4911;0,0421202
823,4554;0,0420677
824,4196;0,0419959
825,3839;0,0419117
826,3481;0,04183
827,3123;0,041764
828,2766;0,0417157
829,2408;0,041674
830,2050;0,0416208
831,1693;0,0415431
832,1335;0,0414409
833,0977;0,0413254
834,0620;0,0412094
835,0262;0,0410971
835,9904;0,0409809
836,9547;0,0408488
837,9189;0,0406942
838,8831;0,0405224
839,8474;0,0403473
840,8116;0,0401834
841,7758;0,0400385
842,7401;0,0399138
843,7043;0,0398079
844,6685;0,0397216
845,6328;0,0396566
846,5970;0,0396122
847,5612;0,0395817
848,5255;0,0395549
849,4897;0,0395226
850,4539;0,0394818
851,4182;0,0394354
852,3824;0,0393888
853,3466;0,0393456
854,3109;0,0393075
855,2751;0,0392764
856,2393;0,0392559
857,2036;0,0392513
858,1678;0,0392656
859,1320;0,0392963
860,0963;0,0393359
861,0605;0,0393747
862,0247;0,039406
862,9890;0,0394291
863,9532;0,0394494
864,9174;0,0394769
865,8817;0,0395217
866,8459;0,0395912
867,8101;0,0396871
868,7744;0,0398048
869,7386;0,0399344
870,7028;0,0400643
871,6671;0,0401847
872,6313;0,040291
873,5955;0,0403843
874,5598;0,0404701
875,5240;0,0405564
876,4882;0,0406507
877,4525;0,0407588
878,4167;0,0408839
879,3809;0,0410276
880,3452;0,0411915
881,3094;0,0413784
882,2736;0,0415935
883,2379;0,0418439
884,2021;0,0421359
885,1663;0,0424731
886,1306;0,0428555
887,0948;0,0432804
888,0590;0,0437448
889,0233;0,0442463
889,9875;0,0447817
890,9517;0,0453422
891,9160;0,0459092
892,8802;0,0464516
893,8444;0,0469298
894,8087;0,0473042
895,7729;0,0475449
896,7371;0,0476396
897,7014;0,0475949
898,6656;0,0474313
899,6298;0,0471747
900,5941;0,0468496
901,5583;0,0464747
902,5225;0,0460633
903,4868;0,0456261
904,4510;0,0451735
905,4152;0,0447182
906,3795;0,0442756
907,3437;0,0438637
908,3079;0,0435009
909,2722;0,0432029
910,2364;0,0429789
911,2007;0,0428282
912,1649;0,0427408
913,1292;0,0427003
914,0934;0,04269
915,0576;0,0426975
916,0219;0,0427179
916,9861;0,0427535
917,9503;0,0428106
918,9146;0,0428956
919,8788;0,0430111
920,8430;0,0431532
921,8073;0,0433117
922,7715;0,0434728
923,7357;0,0436244
924,7000;0,0437606
925,6642;0,043884
926,6284;0,0440035
927,5927;0,0441285
928,5569;0,0442635
929,5211;0,0444066
930,4854;0,044553
931,4496;0,0447005
932,4138;0,0448546
933,3781;0,045027
934,3423;0,0452302
935,3065;0,0454696
936,2708;0,04574
937,2350;0,0460288
938,1992;0,0463238
939,1635;0,0466217
940,1277;0,0469311
941,0919;0,0472682
942,0562;0,0476492
943,0204;0,0480827
943,9846;0,0485688
944,9489;0,0491022
945,9131;0,049678
946,8773;0,0502949
947,8416;0,0509539
948,8058;0,051656
949,7700;0,0523989
950,7343;0,0531775
951,6985;0,0539846
952,6627;0,0548126
953,6270;0,0556543
954,5912;0,0565045
955,5554;0,0573613
956,5197;0,058228
957,4839;0,0591122
958,4481;0,0600204
959,4124;0,0609522
960,3766;0,0618958
961,3408;0,0628308
962,3051;0,0637382
963,2693;0,0646098
964,2335;0,0654535
965,1978;0,0662887
966,1620;0,0671363
967,1262;0,0680093
968,0905;0,0689114
969,0547;0,0698413
970,0189;0,0708015
970,9832;0,0718028
971,9474;0,0728627
972,9116;0,0739997
973,8759;0,0752265
974,8401;0,0765466
975,8043;0,0779549
976,7686;0,0794393
977,7328;0,0809835
978,6970;0,0825672
979,6613;0,0841662
980,6255;0,0857514
981,5897;0,0872908
982,5540;0,0887517
983,5182;0,0901062
984,4824;0,0913353
985,4467;0,0924328
986,4109;0,093404
987,3751;0,0942621
988,3394;0,0950231
989,3036;0,0957005
990,2678;0,0963043
991,2321;0,0968401
992,1963;0,097311
993,1605;0,0977201
994,1248;0,0980726
995,0890;0,0983782
996,0532;0,0986531
997,0175;0,098918
997,9817;0,0991949
998,9459;0,0995014
999,9102;0,0998473
1000,8744;0,100235
1001,8386;0,100663
1002,8029;0,101133
1003,7671;0,10165
1004,7313;0,102225
1005,6956;0,102872
1006,6598;0,103605
1007,6240;0,104434
1008,5883;0,105364
1009,5525;0,106386
1010,5167;0,10748
1011,4810;0,108609
1012,4452;0,109732
1013,4094;0,110811
1014,3737;0,111817
1015,3379;0,112741
1016,3021;0,113579
1017,2664;0,11433
1018,2306;0,114991
1019,1948;0,115554
1020,1591;0,116015
1021,1233;0,116381
1022,0875;0,116666
1023,0518;0,116888
1024,0160;0,117064
1024,9802;0,117198
1025,9445;0,11729
1026,9087;0,11733
1027,8729;0,11731
1028,8372;0,117222
1029,8014;0,117055
1030,7656;0,116802
1031,7299;0,116451
1032,6941;0,116
1033,6583;0,115449
1034,6226;0,114811
1035,5868;0,114104
1036,5510;0,113356
1037,5153;0,112597
1038,4795;0,111862
1039,4437;0,111184
1040,4080;0,110589
1041,3722;0,110085
1042,3364;0,109665
1043,3007;0,1093
1044,2649;0,108953
1045,2291;0,108589
1046,1934;0,108182
1047,1576;0,107718
1048,1218;0,107193
1049,0861;0,106609
1050,0503;0,105967
1051,0145;0,105267
1051,9788;0,10451
1052,9430;0,1037
1053,9072;0,102843
1054,8715;0,101942
1055,8357;0,100998
1056,7999;0,100004
1057,7642;0,0989511
1058,7284;0,0978297
1059,6926;0,0966375
1060,6569;0,0953813
1061,6211;0,0940779
1062,5853;0,0927526
1063,5496;0,0914381
1064,5138;0,0901715
1065,4780;0,0889896
1066,4423;0,0879202
1067,4065;0,0869732
1068,3707;0,0861345
1069,3350;0,0853691
1070,2992;0,0846312
1071,2634;0,0838794
1072,2277;0,0830883
1073,1919;0,0822519
1074,1561;0,0813793
1075,1204;0,0804864
1076,0846;0,0795892
1077,0488;0,0787007
1078,0131;0,0778336
1078,9773;0,0770016
1079,9415;0,0762208
1080,9058;0,0755065
1081,8700;0,0748693
1082,8342;0,0743113
1083,7985;0,073825
1084,7627;0,0733962
1085,7269;0,0730097
1086,6912;0,0726556
1087,6554;0,072332
1088,6196;0,0720424
1089,5839;0,0717904
1090,5481;0,0715744
1091,5123;0,0713866
1092,4766;0,0712185
1093,4408;0,0710668
1094,4050;0,0709362
1095,3693;0,0708343
1096,3335;0,0707643
1097,2977;0,0707192
1098,2620;0,0706834
1099,2262;0,0706412
1100,1904;0,0705845
1101,1547;0,070515
1102,1189;0,0704387
1103,0831;0,070357
1104,0474;0,0702632
1105,0116;0,0701458
1105,9758;0,0699965
1106,9401;0,0698151
1107,9043;0,0696072
1108,8685;0,069375
1109,8328;0,0691098
1110,7970;0,0687922
1111,7612;0,0684015
1112,7255;0,0679294
1113,6897;0,0673887
1114,6539;0,0668111
1115,6182;0,0662367
1116,5824;0,0656989
1117,5466;0,0652142
1118,5109;0,0647793
1119,4751;0,0643747
1120,4393;0,0639712
1121,4036;0,0635365
1122,3678;0,0630395
1123,3320;0,0624549
1124,2963;0,0617666
1125,2605;0,0609708
1126,2247;0,060076
1127,1890;0,0591014
1128,1532;0,0580721
1129,1174;0,0570136
1130,0817;0,0559485
1131,0459;0,0548945
1132,0101;0,0538661
1132,9744;0,0528772
1133,9386;0,0519442
1134,9028;0,0510873
1135,8671;0,0503288
1136,8313;0,0496884
1137,7955;0,0491784
1138,7598;0,0488008
1139,7240;0,0485481
1140,6882;0,0484065
1141,6525;0,048361
1142,6167;0,0483975
1143,5809;0,048504
1144,5452;0,0486691
1145,5094;0,0488825
1146,4736;0,0491355
1147,4379;0,0494224
1148,4021;0,0497403
1149,3663;0,0500855
1150,3306;0,0504497
1151,2948;0,0508176
1152,2590;0,0511675
1153,2233;0,051475
1154,1875;0,0517167
1155,1517;0,0518721
1156,1160;0,051923
1157,0802;0,0518514
1158,0444;0,0516389
1159,0087;0,0512674
1159,9729;0,0507212
1160,9371;0,0499907
1161,9014;0,0490747
1162,8656;0,0479841
1163,8298;0,0467439
1164,7941;0,0453922
1165,7583;0,0439771
1166,7225;0,042549
1167,6868;0,0411527
1168,6510;0,0398207
1169,6152;0,0385719
1170,5795;0,0374138
1171,5437;0,0363482
1172,5079;0,0353757
1173,4722;0,0344982
1174,4364;0,0337181
1175,4006;0,033036
1176,3649;0,0324495
1177,3291;0,0319524
1178,2933;0,031536
1179,2576;0,0311899
1180,2218;0,0309041
1181,1860;0,0306695
1182,1503;0,0304794
1183,1145;0,0303294
1184,0787;0,0302176
1185,0430;0,030144
1186,0072;0,0301101
1186,9714;0,0301188
1187,9357;0,0301744
1188,8999;0,0302825
1189,8641;0,0304489
1190,8284;0,0306774
1191,7926;0,0309667
1192,7568;0,0313099
1193,7211;0,0316941
1194,6853;0,0321044
1195,6495;0,0325278
1196,6138;0,0329562
1197,5780;0,0333873
1198,5422;0,0338224
1199,5065;0,0342687
1200,4707;0,0347151
1201,4349;0,0351641
1202,3992;0,035611
1203,3634;0,0360515
1204,3276;0,0364835
1205,2919;0,0369074
1206,2561;0,0373261
1207,2203;0,0377445
1208,1846;0,0381701
1209,1488;0,0386125
1210,1130;0,039083
1211,0773;0,0395918
1212,0415;0,0401449
1213,0057;0,0407416
1213,9700;0,0413733
1214,9342;0,0420262
1215,8984;0,042685
1216,8627;0,043337
1217,8269;0,0439741
1218,7911;0,0445928
1219,7554;0,0451923
1220,7196;0,0457719
1221,6838;0,0463296
1222,6481;0,0468614
1223,6123;0,0473628
1224,5765;0,0478294
1225,5408;0,0482585
1226,5050;0,0486493
1227,4692;0,0490031
1228,4335;0,0493226
1229,3977;0,0496114
1230,3619;0,0498725
1231,3262;0,0501071
1232,2904;0,0503142
1233,2546;0,0504917
1234,2189;0,0506383
1235,1831;0,0507554
1236,1473;0,0508481
1237,1116;0,0509235
1238,0758;0,050987
1239,0400;0,0510393
1240,0043;0,0510753
1240,9685;0,0510857
1241,9327;0,0510607
1242,8970;0,0509945
1243,8612;0,0508868
1244,8254;0,0507424
1245,7897;0,0505679
1246,7539;0,0503696
1247,7181;0,0501519
1248,6824;0,0499183
1249,6466;0,0496726
1250,6108;0,0494195
1251,5751;0,0491633
1252,5393;0,0489064
1253,5035;0,0486478
1254,4678;0,0483837
1255,4320;0,0481093
1256,3962;0,0478215
1257,3605;0,04752
1258,3247;0,0472069
1259,2889;0,0468853
1260,2532;0,0465568
1261,2174;0,0462204
1262,1816;0,0458725
1263,1459;0,0455078
1264,1101;0,0451203
1265,0743;0,0447039
1266,0386;0,0442535
1267,0028;0,0437662
1267,9670;0,0432437
1268,9313;0,0426929
1269,8955;0,0421257
1270,8597;0,0415543
1271,8240;0,040987
1272,7882;0,0404251
1273,7524;0,039865
1274,7167;0,0393029
1275,6809;0,0387404
1276,6451;0,0381855
1277,6094;0,0376491
1278,5736;0,0371399
1279,5378;0,0366598
1280,5021;0,0362055
1281,4663;0,0357722
1282,4305;0,0353584
1283,3948;0,0349669
1284,3590;0,0346024
1285,3232;0,0342685
1286,2875;0,0339662
1287,2517;0,0336954
1288,2159;0,0334579
1289,1802;0,0332581
1290,1444;0,0331021
1291,1086;0,032994
1292,0729;0,032934
1293,0371;0,0329185
1294,0013;0,0329417
1294,9656;0,0329983
1295,9298;0,0330849
1296,8940;0,0332006
1297,8583;0,0333454
1298,8225;0,0335194
1299,7867;0,033722
1300,7510;0,0339518
1301,7152;0,0342074
1302,6794;0,0344881
1303,6437;0,0347941
1304,6079;0,035125
1305,5721;0,0354781
1306,5364;0,0358478
1307,5006;0,0362263
1308,4648;0,0366056
1309,4291;0,0369802
1310,3933;0,0373465
1311,3575;0,0377015
1312,3218;0,0380407
1313,2860;0,0383564
1314,2502;0,0386384
1315,2145;0,0388763
1316,1787;0,0390604
1317,1429;0,0391845
1318,1072;0,039247
1319,0714;0,0392536
1320,0356;0,0392168
1320,9999;0,0391524
1321,9641;0,0390749
1322,9283;0,038995
1323,8926;0,0389192
1324,8568;0,0388507
1325,8210;0,0387906
1326,7853;0,0387368
1327,7495;0,0386845
1328,7137;0,0386255
1329,6780;0,0385507
1330,6422;0,0384519
1331,6064;0,0383253
1332,5707;0,0381723
1333,5349;0,0379977
1334,4991;0,0378057
1335,4634;0,0375952
1336,4276;0,0373581
1337,3918;0,0370839
