TITLE;
DATA TYPE;INFRARED SPECTRUM
ORIGIN;JASCO
OWNER;
DATE;25/02/25
TIME;16:24:04
SPECTROMETER/DATA SYSTEM;
LOCALE;9226
RESOLUTION;
DELTAX;0,964233
XUNITS;1/CM
YUNITS;ABSORBANCE
FIRSTX;  399,1927
LASTX; 4000,6047
NPOINTS;    3736
FIRSTY;     0,13692
MAXY;     0,17791
MINY;     0,01093
XYDATA
399,1927;0,136918
400,1569;0,136458
401,1211;0,135994
402,0854;0,135698
403,0496;0,135484
404,0138;0,135151
404,9781;0,134538
405,9423;0,133674
406,9065;0,132832
407,8708;0,132413
408,8350;0,132703
409,7992;0,133673
410,7635;0,134938
411,7277;0,135949
412,6919;0,136337
413,6562;0,136135
414,6204;0,13574
415,5846;0,135716
416,5489;0,136574
417,5131;0,138475
418,4773;0,140824
419,4416;0,142415
420,4058;0,142546
421,3700;0,141642
422,3343;0,140567
423,2985;0,139935
424,2627;0,139959
425,2270;0,140528
426,1912;0,141347
427,1554;0,142107
428,1197;0,14263
429,0839;0,142881
430,0481;0,142904
431,0124;0,142747
431,9766;0,142446
432,9408;0,142054
433,9051;0,141672
434,8693;0,141449
435,8335;0,14152
436,7978;0,14193
437,7620;0,142606
438,7262;0,14339
439,6905;0,144106
440,6547;0,144604
441,6189;0,144791
442,5832;0,144646
443,5474;0,144234
444,5116;0,143688
445,4759;0,143148
446,4401;0,142704
447,4043;0,142378
448,3686;0,142146
449,3328;0,14198
450,2970;0,141869
451,2613;0,141825
452,2255;0,141865
453,1897;0,141988
454,1540;0,142167
455,1182;0,142358
456,0824;0,14252
457,0467;0,142628
458,0109;0,142675
458,9751;0,142663
459,9394;0,142589
460,9036;0,142457
461,8678;0,142286
462,8321;0,142124
463,7963;0,142039
464,7605;0,142084
465,7248;0,142261
466,6890;0,142502
467,6532;0,142697
468,6175;0,142743
469,5817;0,142588
470,5459;0,142252
471,5102;0,141813
472,4744;0,141373
473,4386;0,141009
474,4029;0,140743
475,3671;0,140567
476,3313;0,140473
477,2956;0,140478
478,2598;0,140611
479,2240;0,140888
480,1883;0,141296
481,1525;0,141791
482,1167;0,142313
483,0810;0,1428
484,0452;0,143198
485,0094;0,143464
485,9737;0,143575
486,9379;0,143534
487,9021;0,143373
488,8664;0,143158
489,8306;0,142969
490,7948;0,142883
491,7591;0,142931
492,7233;0,143082
493,6875;0,143262
494,6518;0,143397
495,6160;0,143465
496,5802;0,143493
497,5445;0,143528
498,5087;0,143599
499,4729;0,143697
500,4372;0,143791
501,4014;0,143872
502,3656;0,143983
503,3299;0,144207
504,2941;0,144608
505,2583;0,145174
506,2226;0,145803
507,1868;0,146347
508,1510;0,14668
509,1153;0,146766
510,0795;0,14667
511,0437;0,146525
512,0080;0,146457
512,9722;0,146549
513,9365;0,146827
514,9007;0,14728
515,8649;0,147868
516,8292;0,14852
517,7934;0,14913
518,7576;0,149586
519,7219;0,149818
520,6861;0,149826
521,6503;0,149668
522,6146;0,14942
523,5788;0,149147
524,5430;0,14889
525,5073;0,148677
526,4715;0,148523
527,4357;0,148436
528,4000;0,148412
529,3642;0,148423
530,3284;0,148428
531,2927;0,148379
532,2569;0,148238
533,2211;0,147995
534,1854;0,147662
535,1496;0,147265
536,1138;0,146829
537,0781;0,146375
538,0423;0,145929
539,0065;0,145535
539,9708;0,145253
540,9350;0,145134
541,8992;0,145189
542,8635;0,145377
543,8277;0,145611
544,7919;0,145803
545,7562;0,145913
546,7204;0,14597
547,6846;0,146061
548,6489;0,146263
549,6131;0,146594
550,5773;0,146986
551,5416;0,147333
552,5058;0,14755
553,4700;0,147627
554,4343;0,147629
555,3985;0,147648
556,3627;0,147737
557,3270;0,147866
558,2912;0,147928
559,2554;0,147793
560,2197;0,147366
561,1839;0,146637
562,1481;0,145687
563,1124;0,144653
564,0766;0,143678
565,0408;0,142863
566,0051;0,142239
566,9693;0,141779
567,9335;0,141414
568,8978;0,141081
569,8620;0,14074
570,8262;0,140388
571,7905;0,140043
572,7547;0,139724
573,7189;0,139441
574,6832;0,139198
575,6474;0,138998
576,6116;0,138847
577,5759;0,138751
578,5401;0,138712
579,5043;0,138718
580,4686;0,138747
581,4328;0,138769
582,3970;0,138763
583,3613;0,138714
584,3255;0,138629
585,2897;0,138525
586,2540;0,138426
587,2182;0,138351
588,1824;0,13831
589,1467;0,138298
590,1109;0,138299
591,0751;0,138291
592,0394;0,138249
593,0036;0,138153
593,9678;0,137992
594,9321;0,137764
595,8963;0,137483
596,8605;0,13717
597,8248;0,136855
598,7890;0,136564
599,7532;0,136308
600,7175;0,136073
601,6817;0,135827
602,6459;0,135534
603,6102;0,13518
604,5744;0,134778
605,5386;0,134361
606,5029;0,133966
607,4671;0,133609
608,4313;0,133273
609,3956;0,132922
610,3598;0,132528
611,3240;0,1321
612,2883;0,131683
613,2525;0,131331
614,2167;0,131067
615,1810;0,130848
616,1452;0,130567
617,1094;0,130103
618,0737;0,129381
619,0379;0,128428
620,0021;0,127351
620,9664;0,126281
621,9306;0,125312
622,8948;0,124478
623,8591;0,123761
624,8233;0,123083
625,7875;0,122456
626,7518;0,121865
627,7160;0,121323
628,6802;0,12085
629,6445;0,120457
630,6087;0,12012
631,5729;0,119792
632,5372;0,119422
633,5014;0,118987
634,4656;0,118515
635,4299;0,118079
636,3941;0,117756
637,3583;0,117578
638,3226;0,117517
639,2868;0,117489
640,2510;0,117408
641,2153;0,117223
642,1795;0,116952
643,1437;0,11666
644,1080;0,116426
645,0722;0,116294
646,0364;0,116253
647,0007;0,116246
647,9649;0,116193
648,9291;0,116041
649,8934;0,115785
650,8576;0,115473
651,8218;0,115188
652,7861;0,115004
653,7503;0,114963
654,7145;0,115056
655,6788;0,115228
656,6430;0,115403
657,6072;0,115518
658,5715;0,115546
659,5357;0,115492
660,4999;0,115366
661,4642;0,115148
662,4284;0,114772
663,3926;0,114149
664,3569;0,113229
665,3211;0,11211
666,2853;0,111097
667,2496;0,110551
668,2138;0,110475
669,1780;0,110475
670,1423;0,110367
671,1065;0,110157
672,0707;0,109734
673,0350;0,108976
673,9992;0,107899
674,9634;0,10664
675,9277;0,105368
676,8919;0,104193
677,8561;0,103132
678,8204;0,102156
679,7846;0,101245
680,7488;0,10041
681,7131;0,0996783
682,6773;0,099053
683,6415;0,0985064
684,6058;0,0979975
685,5700;0,0974983
686,5342;0,0970036
687,4985;0,0965232
688,4627;0,0960708
689,4269;0,095643
690,3912;0,0952317
691,3554;0,0948322
692,3196;0,0944473
693,2839;0,094084
694,2481;0,0937469
695,2123;0,0934327
696,1766;0,0931291
697,1408;0,0928192
698,1050;0,0924914
699,0693;0,0921472
700,0335;0,0918019
700,9977;0,0914747
701,9620;0,0911735
702,9262;0,0908844
703,8904;0,0905646
704,8547;0,0901829
705,8189;0,0897283
706,7831;0,0892226
707,7474;0,0887112
708,7116;0,0882395
709,6758;0,0878289
710,6401;0,0874664
711,6043;0,0871151
712,5685;0,0867372
713,5328;0,0863162
714,4970;0,0858657
715,4612;0,0848401
716,4255;0,0845425
717,3897;0,0843206
718,3539;0,0841087
719,3182;0,0838064
720,2824;0,0833289
721,2466;0,0826565
722,2109;0,0818444
723,1751;0,0809885
724,1393;0,0801754
725,1036;0,0794517
726,0678;0,0788219
727,0320;0,0782643
727,9963;0,0777522
728,9605;0,0772672
729,9247;0,0768028
730,8890;0,0763581
731,8532;0,0759308
732,8174;0,0755141
733,7817;0,0751013
734,7459;0,0746909
735,7101;0,0742908
736,6744;0,0739142
737,6386;0,0735719
738,6028;0,0732639
739,5671;0,0729783
740,5313;0,0726972
741,4955;0,072407
742,4598;0,0721034
743,4240;0,0717905
744,3882;0,0714726
745,3525;0,0711478
746,3167;0,0708086
747,2809;0,0704476
748,2452;0,0700651
749,2094;0,06967
750,1736;0,0692749
751,1379;0,0688876
752,1021;0,0685064
753,0663;0,0681225
754,0306;0,0677281
754,9948;0,067325
755,9590;0,0669267
756,9233;0,0665542
757,8875;0,0662259
758,8517;0,0659485
759,8160;0,065713
760,7802;0,0654991
761,7444;0,0652847
762,7087;0,065056
763,6729;0,0648115
764,6371;0,0645577
765,6014;0,0643021
766,5656;0,0640461
767,5298;0,0637858
768,4941;0,0635182
769,4583;0,0632481
770,4225;0,0629882
771,3868;0,0627528
772,3510;0,0625478
773,3152;0,0623656
774,2795;0,0621894
775,2437;0,0620034
776,2079;0,0618027
777,1722;0,0615948
778,1364;0,0613914
779,1006;0,0611981
780,0649;0,0610075
781,0291;0,0608041
781,9933;0,0605744
782,9576;0,0603173
783,9218;0,0600464
784,8860;0,0597827
785,8503;0,0595436
786,8145;0,0593337
787,7787;0,0591454
788,7430;0,0589648
789,7072;0,0587812
790,6714;0,0585921
791,6357;0,0584034
792,5999;0,0582248
793,5641;0,0580648
794,5284;0,0579273
795,4926;0,0578112
796,4568;0,0577119
797,4211;0,0576224
798,3853;0,0575334
799,3495;0,0574343
800,3138;0,0573154
801,2780;0,0571713
802,2422;0,057005
803,2065;0,0568292
804,1707;0,0566629
805,1349;0,0565232
806,0992;0,056418
807,0634;0,0563411
808,0276;0,056276
808,9919;0,0562046
809,9561;0,0561152
810,9203;0,0560067
811,8846;0,0558852
812,8488;0,0557565
813,8130;0,0556214
814,7773;0,0554764
815,7415;0,0553187
816,7057;0,0551528
817,6700;0,05499
818,6342;0,0548435
819,5984;0,0547203
820,5627;0,0546169
821,5269;0,0545226
822,4911;0,0544268
823,4554;0,0543258
824,4196;0,0542247
825,3839;0,0541313
826,3481;0,0540494
827,3123;0,0539751
828,2766;0,0538992
829,2408;0,0538135
830,2050;0,0537153
831,1693;0,0536074
832,1335;0,0534922
833,0977;0,0533676
834,0620;0,0532266
835,0262;0,0530626
835,9904;0,0528771
836,9547;0,0526816
837,9189;0,0524937
838,8831;0,052327
839,8474;0,0521833
840,8116;0,0520509
841,7758;0,0519116
842,7401;0,0517516
843,7043;0,0515699
844,6685;0,0513806
845,6328;0,0512063
846,5970;0,0510692
847,5612;0,0509826
848,5255;0,0509461
849,4897;0,0509464
850,4539;0,0509618
851,4182;0,0509688
852,3824;0,0509504
853,3466;0,0509016
854,3109;0,0508314
855,2751;0,0507588
856,2393;0,0507047
857,2036;0,0506829
858,1678;0,0506963
859,1320;0,0507374
860,0963;0,050794
861,0605;0,0508552
862,0247;0,0509157
862,9890;0,0509764
863,9532;0,051043
864,9174;0,0511238
865,8817;0,051227
866,8459;0,0513575
867,8101;0,0515147
868,7744;0,051691
869,7386;0,0518744
870,7028;0,0520517
871,6671;0,0522128
872,6313;0,0523518
873,5955;0,0524661
874,5598;0,0525563
875,5240;0,0526267
876,4882;0,0526873
877,4525;0,0527537
878,4167;0,0528433
879,3809;0,0529684
880,3452;0,0531327
881,3094;0,0533323
882,2736;0,0535626
883,2379;0,0538266
884,2021;0,0541363
885,1663;0,0545085
886,1306;0,054955
887,0948;0,0554773
888,0590;0,0560665
889,0233;0,0567081
889,9875;0,0573863
890,9517;0,0580823
891,9160;0,0587691
892,8802;0,0594098
893,8444;0,0599618
894,8087;0,0603885
895,7729;0,0606708
896,7371;0,0608095
897,7014;0,0608183
898,6656;0,060712
899,6298;0,0604982
900,5941;0,0601785
901,5583;0,0597566
902,5225;0,059247
903,4868;0,0586777
904,4510;0,058085
905,4152;0,0575067
906,3795;0,056976
907,3437;0,0565187
908,3079;0,0561524
909,2722;0,0558847
910,2364;0,0557114
911,2007;0,0556157
912,1649;0,055572
913,1292;0,0555546
914,0934;0,0555464
915,0576;0,0555443
916,0219;0,0555584
916,9861;0,0556059
917,9503;0,0557012
918,9146;0,0558486
919,8788;0,0560386
920,8430;0,056251
921,8073;0,0564631
922,7715;0,0566599
923,7357;0,0568403
924,7000;0,0570154
925,6642;0,0572007
926,6284;0,0574052
927,5927;0,0576258
928,5569;0,0578501
929,5211;0,0580656
930,4854;0,0582684
931,4496;0,0584662
932,4138;0,0586726
933,3781;0,0588994
934,3423;0,0591503
935,3065;0,0594218
936,2708;0,0597084
937,2350;0,0600082
938,1992;0,0603257
939,1635;0,0606699
940,1277;0,0610517
941,0919;0,0614802
942,0562;0,0619616
943,0204;0,0624981
943,9846;0,0630882
944,9489;0,063727
945,9131;0,0644085
946,8773;0,0651283
947,8416;0,0658854
948,8058;0,066683
949,7700;0,0675268
950,7343;0,0684224
951,6985;0,0693737
952,6627;0,0703819
953,6270;0,0714455
954,5912;0,0725607
955,5554;0,0737221
956,5197;0,0749231
957,4839;0,0761579
958,4481;0,0774218
959,4124;0,0787116
960,3766;0,0800239
961,3408;0,0813535
962,3051;0,0826935
963,2693;0,0840372
964,2335;0,0853802
965,1978;0,0867228
966,1620;0,0880684
967,1262;0,0894223
968,0905;0,0907905
969,0547;0,092182
970,0189;0,0936124
970,9832;0,0951068
971,9474;0,0966974
972,9116;0,0984173
973,8759;0,100291
974,8401;0,102329
975,8043;0,104525
976,7686;0,106866
977,7328;0,109329
978,6970;0,111889
979,6613;0,114508
980,6255;0,117132
981,5897;0,119689
982,5540;0,122099
983,5182;0,124291
984,4824;0,126218
985,4467;0,127872
986,4109;0,129277
987,3751;0,130476
988,3394;0,131517
989,3036;0,132436
990,2678;0,133256
991,2321;0,133991
992,1963;0,134654
993,1605;0,135259
994,1248;0,135826
995,0890;0,136379
996,0532;0,136941
997,0175;0,137531
997,9817;0,138154
998,9459;0,138806
999,9102;0,139475
1000,8744;0,140151
1001,8386;0,140828
1002,8029;0,141518
1003,7671;0,142242
1004,7313;0,143033
1005,6956;0,143923
1006,6598;0,144946
1007,6240;0,146127
1008,5883;0,147489
1009,5525;0,149036
1010,5167;0,150754
1011,4810;0,152607
1012,4452;0,154539
1013,4094;0,156487
1014,3737;0,158398
1015,3379;0,16023
1016,3021;0,161959
1017,2664;0,163575
1018,2306;0,165076
1019,1948;0,166465
1020,1591;0,167753
1021,1233;0,168956
1022,0875;0,170091
1023,0518;0,171176
1024,0160;0,172223
1024,9802;0,173237
1025,9445;0,17422
1026,9087;0,175162
1027,8729;0,17604
1028,8372;0,176814
1029,8014;0,177425
1030,7656;0,177809
1031,7299;0,177905
1032,6941;0,17767
1033,6583;0,17709
1034,6226;0,176185
1035,5868;0,175012
1036,5510;0,173661
1037,5153;0,172245
1038,4795;0,170882
1039,4437;0,169678
1040,4080;0,1687
1041,3722;0,16797
1042,3364;0,167464
1043,3007;0,167128
1044,2649;0,166892
1045,2291;0,166687
1046,1934;0,166458
1047,1576;0,166166
1048,1218;0,165782
1049,0861;0,165288
1050,0503;0,164671
1051,0145;0,163917
1051,9788;0,16302
1052,9430;0,161975
1053,9072;0,160787
1054,8715;0,159464
1055,8357;0,158016
1056,7999;0,156438
1057,7642;0,154713
1058,7284;0,15281
1059,6926;0,1507
1060,6569;0,148378
1061,6211;0,14588
1062,5853;0,143282
1063,5496;0,140685
1064,5138;0,138191
1065,4780;0,135876
1066,4423;0,133778
1067,4065;0,131897
1068,3707;0,130202
1069,3350;0,128651
1070,2992;0,127203
1071,2634;0,125821
1072,2277;0,124477
1073,1919;0,123146
1074,1561;0,121802
1075,1204;0,120423
1076,0846;0,118989
1077,0488;0,117496
1078,0131;0,115962
1078,9773;0,114426
1079,9415;0,112946
1080,9058;0,111579
1081,8700;0,11037
1082,8342;0,109335
1083,7985;0,108462
1084,7627;0,107719
1085,7269;0,107068
1086,6912;0,106479
1087,6554;0,105939
1088,6196;0,105452
1089,5839;0,105029
1090,5481;0,104679
1091,5123;0,104401
1092,4766;0,104186
1093,4408;0,104018
1094,4050;0,103888
1095,3693;0,103795
1096,3335;0,103746
1097,2977;0,103747
1098,2620;0,103798
1099,2262;0,103892
1100,1904;0,104012
1101,1547;0,104137
1102,1189;0,104243
1103,0831;0,104304
1104,0474;0,104298
1105,0116;0,104205
1105,9758;0,104017
1106,9401;0,103741
1107,9043;0,103389
1108,8685;0,102972
1109,8328;0,102485
1110,7970;0,101905
1111,7612;0,101196
1112,7255;0,10033
1113,6897;0,0993083
1114,6539;0,0981673
1115,6182;0,0969746
1116,5824;0,0958066
1117,5466;0,0947247
1118,5109;0,093756
1119,4751;0,0928891
1120,4393;0,0920798
1121,4036;0,0912663
1122,3678;0,0903842
1123,3320;0,0893796
1124,2963;0,0882181
1125,2605;0,0868892
1126,2247;0,0854066
1127,1890;0,083803
1128,1532;0,0821222
1129,1174;0,0804082
1130,0817;0,0786975
1131,0459;0,0770162
1132,0101;0,0753835
1132,9744;0,0738179
1133,9386;0,072343
1134,9028;0,0709875
1135,8671;0,0697814
1136,8313;0,0687488
1137,7955;0,0679031
1138,7598;0,0672455
1139,7240;0,0667674
1140,6882;0,0664543
1141,6525;0,0662879
1142,6167;0,0662478
1143,5809;0,0663127
1144,5452;0,0664626
1145,5094;0,0666815
1146,4736;0,0669595
1147,4379;0,0672917
1148,4021;0,0676761
1149,3663;0,0681092
1150,3306;0,0685837
1151,2948;0,0690869
1152,2590;0,0696009
1153,2233;0,0701038
1154,1875;0,0705707
1155,1517;0,0709739
1156,1160;0,0712822
1157,0802;0,07146
1158,0444;0,0714666
1159,0087;0,0712567
1159,9729;0,0707846
1160,9371;0,0700127
1161,9014;0,0689211
1162,8656;0,0675157
1163,8298;0,0658313
1164,7941;0,0639275
1165,7583;0,0618798
1166,7225;0,0597686
1167,6868;0,0576696
1168,6510;0,0556464
1169,6152;0,0537464
1170,5795;0,051999
1171,5437;0,0504173
1172,5079;0,0490011
1173,4722;0,0477429
1174,4364;0,0466316
1175,4006;0,0456569
1176,3649;0,0448095
1177,3291;0,0440803
1178,2933;0,0434592
1179,2576;0,0429339
1180,2218;0,0424899
1181,1860;0,0421131
1182,1503;0,0417924
1183,1145;0,0415223
1184,0787;0,041303
1185,0430;0,0411393
1186,0072;0,0410369
1186,9714;0,0410001
1187,9357;0,0410304
1188,8999;0,0411275
1189,8641;0,0412909
1190,8284;0,0415203
1191,7926;0,0418156
1192,7568;0,0421754
1193,7211;0,0425957
1194,6853;0,0430687
1195,6495;0,0435829
1196,6138;0,0441238
1197,5780;0,0446759
1198,5422;0,0452255
1199,5065;0,045611
1200,4707;0,0461518
1201,4349;0,0466794
1202,3992;0,0471947
1203,3634;0,0476963
1204,3276;0,0481797
1205,2919;0,0486405
1206,2561;0,0490793
1207,2203;0,0495045
1208,1846;0,0499325
1209,1488;0,0503827
1210,1130;0,0508726
1211,0773;0,0514129
1212,0415;0,0520071
1213,0057;0,0526514
1213,9700;0,0533371
1214,9342;0,0540519
1215,8984;0,0547817
1216,8627;0,055512
1217,8269;0,0562305
1218,7911;0,0569318
1219,7554;0,0576159
1220,7196;0,0582848
1221,6838;0,0589377
1222,6481;0,0595676
1223,6123;0,0601632
1224,5765;0,060714
1225,5408;0,0612163
1226,5050;0,0616756
1227,4692;0,0621031
1228,4335;0,0625092
1229,3977;0,0628974
1230,3619;0,0632629
1231,3262;0,0635961
1232,2904;0,0638892
1233,2546;0,064141
1234,2189;0,0643574
1235,1831;0,064548
1236,1473;0,0647204
1237,1116;0,0648767
1238,0758;0,0650127
1239,0400;0,0651211
1240,0043;0,0651951
1240,9685;0,0652305
1241,9327;0,065226
1242,8970;0,0651814
1243,8612;0,0650961
1244,8254;0,0649683
1245,7897;0,0647964
1246,7539;0,0645814
1247,7181;0,0643271
1248,6824;0,0640405
1249,6466;0,0637295
1250,6108;0,0634023
1251,5751;0,0630663
1252,5393;0,062728
1253,5035;0,0623932
1254,4678;0,0620644
1255,4320;0,0617401
1256,3962;0,0614132
1257,3605;0,0610738
1258,3247;0,0607126
1259,2889;0,0603239
1260,2532;0,0599063
1261,2174;0,0594616
1262,1816;0,0589917
1263,1459;0,0584982
1264,1101;0,0579829
1265,0743;0,0574499
1266,0386;0,0569046
1267,0028;0,0563508
1267,9670;0,0557881
1268,9313;0,055211
1269,8955;0,0546125
1270,8597;0,053989
1271,8240;0,0533446
1272,7882;0,0526912
1273,7524;0,0520453
1274,7167;0,0514232
1275,6809;0,0508369
1276,6451;0,0502917
1277,6094;0,0497846
1278,5736;0,0493053
1279,5378;0,0488399
1280,5021;0,0483765
1281,4663;0,0479111
1282,4305;0,0474486
1283,3948;0,0469999
1284,3590;0,0465762
1285,3232;0,0461838
1286,2875;0,0458237
1287,2517;0,0454947
1288,2159;0,0451968
1289,1802;0,0449339
1290,1444;0,0447121
1291,1086;0,0445365
1292,0729;0,04441
1293,0371;0,0443328
1294,0013;0,0443048
1294,9656;0,0443266
1295,9298;0,0443998
1296,8940;0,0445255
1297,8583;0,0447034
1298,8225;0,0449306
1299,7867;0,0452025
1300,7510;0,045513
1301,7152;0,045858
1302,6794;0,046234
1303,6437;0,0466386
1304,6079;0,0470716
1305,5721;0,0475317
1306,5364;0,0480163
1307,5006;0,0485201
1308,4648;0,0490373
1309,4291;0,0495615
1310,3933;0,0500851
1311,3575;0,050597
1312,3218;0,0510813
1313,2860;0,0515183
1314,2502;0,0518879
1315,2145;0,0521721
1316,1787;0,0523559
1317,1429;0,0524282
1318,1072;0,0523859
1319,0714;0,0522396
1320,0356;0,0520159
1320,9999;0,0517514
1321,9641;0,0514806
1322,9283;0,0512269
1323,8926;0,0510012
1324,8568;0,0508057
1325,8210;0,0506388
1326,7853;0,0504976
1327,7495;0,0503777
1328,7137;0,0502723
1329,6780;0,0501717
1330,6422;0,0500658
1331,6064;0,0499484
1332,5707;0,0498192
1333,5349;0,0496843
1334,4991;0,0495486
1335,4634;0,0494071
1336,4276;0,0492379
1337,3918;0,0490002
1338,3561;0,048651
1339,3203;0,0481796
1340,2845;0,0476317
1341,2488;0,0470876
1342,2130;0,0466116
1343,1772;0,0462275
1344,1415;0,0459307
1345,1057;0,0457104
1346,0699;0,0455614
1347,0342;0,0454837
1347,9984;0,0454782
1348,9626;0,0455426
1349,9269;0,0456706
1350,8911;0,0458516
1351,8553;0,0460728
1352,8196;0,046322
1353,7838;0,0465915
1354,7480;0,0468816
