TITLE;
DATA TYPE;INFRARED SPECTRUM
ORIGIN;JASCO
OWNER;
DATE;25/02/25
TIME;17:38:54
SPECTROMETER/DATA SYSTEM;
LOCALE;9226
RESOLUTION;
DELTAX;0,964233
XUNITS;1/CM
YUNITS;ABSORBANCE
FIRSTX;  399,1927
LASTX; 4000,6047
NPOINTS;    3736
FIRSTY;     0,17208
MAXY;     0,21570
MINY;     0,00567
XYDATA
399,1927;0,172084
400,1569;0,17103
401,1211;0,168773
402,0854;0,166055
403,0496;0,16356
404,0138;0,161732
404,9781;0,160745
405,9423;0,160514
406,9065;0,16081
407,8708;0,16142
408,8350;0,162255
409,7992;0,163298
410,7635;0,164456
411,7277;0,165487
412,6919;0,166092
413,6562;0,166081
414,6204;0,165452
415,5846;0,164342
416,5489;0,162977
417,5131;0,1617
418,4773;0,16097
419,4416;0,161102
420,4058;0,161969
421,3700;0,163179
422,3343;0,16443
423,2985;0,165568
424,2627;0,166486
425,2270;0,167077
426,1912;0,167269
427,1554;0,167084
428,1197;0,166645
429,0839;0,166142
430,0481;0,165775
431,0124;0,165708
431,9766;0,166027
432,9408;0,166709
433,9051;0,167621
434,8693;0,168559
435,8335;0,169312
436,7978;0,169735
437,7620;0,169791
438,7262;0,169527
439,6905;0,169025
440,6547;0,168369
441,6189;0,167653
442,5832;0,166989
443,5474;0,166492
444,5116;0,166219
445,4759;0,166127
446,4401;0,166099
447,4043;0,166009
448,3686;0,165792
449,3328;0,165457
450,2970;0,165067
451,2613;0,1647
452,2255;0,164411
453,1897;0,16423
454,1540;0,164172
455,1182;0,164241
456,0824;0,164421
457,0467;0,164649
458,0109;0,164823
458,9751;0,164875
459,9394;0,164834
460,9036;0,164812
461,8678;0,16492
462,8321;0,165194
463,7963;0,16557
464,7605;0,165914
465,7248;0,166092
466,6890;0,166051
467,6532;0,165846
468,6175;0,165598
469,5817;0,165417
470,5459;0,16535
471,5102;0,165368
472,4744;0,165406
473,4386;0,165421
474,4029;0,165434
475,3671;0,165511
476,3313;0,16571
477,2956;0,16604
478,2598;0,16645
479,2240;0,166854
480,1883;0,16718
481,1525;0,167407
482,1167;0,167576
483,0810;0,167748
484,0452;0,167945
485,0094;0,168124
485,9737;0,1682
486,9379;0,168116
487,9021;0,167886
488,8664;0,167588
489,8306;0,167323
490,7948;0,167162
491,7591;0,167113
492,7233;0,167123
493,6875;0,16712
494,6518;0,16706
495,6160;0,166949
496,5802;0,166824
497,5445;0,166727
498,5087;0,166678
499,4729;0,166673
500,4372;0,166691
501,4014;0,16671
502,3656;0,166728
503,3299;0,166772
504,2941;0,16688
505,2583;0,167079
506,2226;0,167362
507,1868;0,167685
508,1510;0,167995
509,1153;0,168249
510,0795;0,168444
511,0437;0,168602
512,0080;0,168748
512,9722;0,168894
513,9365;0,169041
514,9007;0,169204
515,8649;0,169421
516,8292;0,16974
517,7934;0,170167
518,7576;0,170622
519,7219;0,170966
520,6861;0,171078
521,6503;0,170931
522,6146;0,170607
523,5788;0,170254
524,5430;0,17002
525,5073;0,16997
526,4715;0,17004
527,4357;0,170083
528,4000;0,169968
529,3642;0,169665
530,3284;0,169233
531,2927;0,168765
532,2569;0,168316
533,2211;0,167884
534,1854;0,167432
535,1496;0,166951
536,1138;0,166487
537,0781;0,166124
538,0423;0,165924
539,0065;0,165872
539,9708;0,165886
540,9350;0,165874
541,8992;0,165795
542,8635;0,165686
543,8277;0,165625
544,7919;0,165671
545,7562;0,165818
546,7204;0,165997
547,6846;0,16613
548,6489;0,166185
549,6131;0,166199
550,5773;0,166253
551,5416;0,166431
552,5058;0,16678
553,4700;0,167293
554,4343;0,167903
555,3985;0,168492
556,3627;0,168908
557,3270;0,169007
558,2912;0,168696
559,2554;0,167979
560,2197;0,166956
561,1839;0,165785
562,1481;0,164624
563,1124;0,163571
564,0766;0,162644
565,0408;0,161807
566,0051;0,16102
566,9693;0,160279
567,9335;0,159623
568,8978;0,159098
569,8620;0,158726
570,8262;0,158475
571,7905;0,158282
572,7547;0,158082
573,7189;0,15784
574,6832;0,157552
575,6474;0,157243
576,6116;0,156949
577,5759;0,1567
578,5401;0,156513
579,5043;0,156391
580,4686;0,156321
581,4328;0,156278
582,3970;0,156227
583,3613;0,156142
584,3255;0,156017
585,2897;0,155871
586,2540;0,155735
587,2182;0,155635
588,1824;0,155574
589,1467;0,155534
590,1109;0,15549
591,0751;0,155429
592,0394;0,155355
593,0036;0,155279
593,9678;0,1552
594,9321;0,1551
595,8963;0,154946
596,8605;0,154715
597,8248;0,154407
598,7890;0,154051
599,7532;0,153687
600,7175;0,153345
601,6817;0,153035
602,6459;0,152739
603,6102;0,152437
604,5744;0,152116
605,5386;0,151768
606,5029;0,151388
607,4671;0,150958
608,4313;0,150451
609,3956;0,14985
610,3598;0,149162
611,3240;0,148419
612,2883;0,147672
613,2525;0,146961
614,2167;0,146301
615,1810;0,145681
616,1452;0,145075
617,1094;0,14445
618,0737;0,143781
619,0379;0,143048
620,0021;0,142241
620,9664;0,141358
621,9306;0,140412
622,8948;0,139435
623,8591;0,138474
624,8233;0,137563
625,7875;0,136747
626,7518;0,136025
627,7160;0,135373
628,6802;0,134763
629,6445;0,134177
630,6087;0,133612
631,5729;0,133074
632,5372;0,132579
633,5014;0,132137
634,4656;0,13175
635,4299;0,131401
636,3941;0,131049
637,3583;0,130649
638,3226;0,130168
639,2868;0,129608
640,2510;0,129011
641,2153;0,128432
642,1795;0,127912
643,1437;0,127454
644,1080;0,127029
645,0722;0,126598
646,0364;0,126142
647,0007;0,125673
647,9649;0,125231
648,9291;0,12486
649,8934;0,124577
650,8576;0,124365
651,8218;0,124185
652,7861;0,123998
653,7503;0,123797
654,7145;0,123608
655,6788;0,123476
656,6430;0,123433
657,6072;0,123472
658,5715;0,12355
659,5357;0,12361
660,4999;0,12361
661,4642;0,12353
662,4284;0,123349
663,3926;0,123014
664,3569;0,122429
665,3211;0,121481
666,2853;0,120084
667,2496;0,11827
668,2138;0,116374
669,1780;0,115019
670,1423;0,114498
671,1065;0,114444
672,0707;0,114322
673,0350;0,113812
673,9992;0,112845
674,9634;0,111529
675,9277;0,110061
676,8919;0,108629
677,8561;0,107328
678,8204;0,106167
679,7846;0,105137
680,7488;0,104252
681,7131;0,103535
682,6773;0,102972
683,6415;0,102502
684,6058;0,102049
685,5700;0,10157
686,5342;0,101072
687,4985;0,100601
688,4627;0,100207
689,4269;0,0999092
690,3912;0,0996988
691,3554;0,0995493
692,3196;0,0994349
693,2839;0,099337
694,2481;0,0992426
695,2123;0,0991387
696,1766;0,0990091
697,1408;0,0988399
698,1050;0,0986282
699,0693;0,0983891
700,0335;0,0981508
700,9977;0,0979388
701,9620;0,097758
702,9262;0,0975841
703,8904;0,0973695
704,8547;0,0970755
705,8189;0,0966891
706,7831;0,0962307
707,7474;0,0957423
708,7116;0,0952673
709,6758;0,0948345
710,6401;0,0944533
711,6043;0,0941143
712,5685;0,0937924
713,5328;0,0934489
714,4970;0,0930384
715,4612;0,0922945
716,4255;0,0917053
717,3897;0,0910315
718,3539;0,0903128
719,3182;0,0896014
720,2824;0,088942
721,2466;0,0883512
722,2109;0,0878119
723,1751;0,0872869
724,1393;0,0867434
725,1036;0,0861702
726,0678;0,0855823
727,0320;0,08501
727,9963;0,0844796
728,9605;0,0839951
729,9247;0,0835349
730,8890;0,0830652
731,8532;0,0825629
732,8174;0,0820325
733,7817;0,0815061
734,7459;0,0810257
735,7101;0,0806188
736,6744;0,0802824
737,6386;0,0799851
738,6028;0,0796844
739,5671;0,0793488
740,5313;0,078972
741,4955;0,0785711
742,4598;0,078173
743,4240;0,0777982
744,3882;0,0774499
745,3525;0,0771135
746,3167;0,0767639
747,2809;0,0763761
748,2452;0,0759355
749,2094;0,0754465
750,1736;0,0749345
751,1379;0,0744402
752,1021;0,0740035
753,0663;0,0736453
754,0306;0,0733545
754,9948;0,0730912
755,9590;0,0728062
756,9233;0,0724666
757,8875;0,0720726
758,8517;0,0716553
759,8160;0,0712578
760,7802;0,0709111
761,7444;0,070619
762,7087;0,0703604
763,6729;0,0701032
764,6371;0,0698236
765,6014;0,0695167
766,5656;0,0691965
767,5298;0,0688859
768,4941;0,0686025
769,4583;0,0683492
770,4225;0,0681124
771,3868;0,0678704
772,3510;0,0676061
773,3152;0,0673182
774,2795;0,0670234
775,2437;0,0667485
776,2079;0,0665162
777,1722;0,0663326
778,1364;0,0661829
779,1006;0,0660374
780,0649;0,0658648
781,0291;0,0656438
781,9933;0,0653697
782,9576;0,0650528
783,9218;0,064712
784,8860;0,0643663
785,8503;0,0640294
786,8145;0,0637084
787,7787;0,0634058
788,7430;0,0631239
789,7072;0,0628666
790,6714;0,0626392
791,6357;0,0624451
792,5999;0,0622828
793,5641;0,0621449
794,5284;0,0620203
795,4926;0,0618987
796,4568;0,061774
797,4211;0,0616456
798,3853;0,0615152
799,3495;0,0613845
800,3138;0,0612521
801,2780;0,0611151
802,2422;0,0609722
803,2065;0,0608264
804,1707;0,0606851
805,1349;0,0605557
806,0992;0,0604399
807,0634;0,0603322
808,0276;0,0602225
808,9919;0,0601048
809,9561;0,0599837
810,9203;0,0598739
811,8846;0,0597917
812,8488;0,0597425
813,8130;0,0597142
814,7773;0,0596815
815,7415;0,0596196
816,7057;0,0595189
817,6700;0,0593901
818,6342;0,0592574
819,5984;0,0591438
820,5627;0,0590585
821,5269;0,058994
822,4911;0,0589337
823,4554;0,0588628
824,4196;0,0587763
825,3839;0,0586792
826,3481;0,0585808
827,3123;0,0584877
828,2766;0,0584003
829,2408;0,0583135
830,2050;0,0582208
831,1693;0,0581179
832,1335;0,0580047
833,0977;0,0578834
834,0620;0,0577556
835,0262;0,0576194
835,9904;0,0574693
836,9547;0,0572997
837,9189;0,0571082
838,8831;0,0568982
839,8474;0,0566774
840,8116;0,056455
841,7758;0,0562389
842,7401;0,0560354
843,7043;0,0558508
844,6685;0,0556923
845,6328;0,055566
846,5970;0,0554732
847,5612;0,0554077
848,5255;0,0553569
849,4897;0,0553067
850,4539;0,0552476
851,4182;0,0551776
852,3824;0,0551017
853,3466;0,0550278
854,3109;0,0549627
855,2751;0,0549103
856,2393;0,054872
857,2036;0,0548485
858,1678;0,0548412
859,1320;0,0548526
860,0963;0,0548855
861,0605;0,0549417
862,0247;0,0550212
862,9890;0,0551233
863,9532;0,0552489
864,9174;0,0554012
865,8817;0,0555851
866,8459;0,055803
867,8101;0,0560488
868,7744;0,0563072
869,7386;0,0565576
870,7028;0,0567831
871,6671;0,056979
872,6313;0,0571539
873,5955;0,0573231
874,5598;0,0574991
875,5240;0,057686
876,4882;0,0578817
877,4525;0,0580866
878,4167;0,0583096
879,3809;0,0585684
880,3452;0,0588818
881,3094;0,0592624
882,2736;0,059714
883,2379;0,0602361
884,2021;0,0608294
885,1663;0,0614984
886,1306;0,0622471
887,0948;0,0630727
888,0590;0,0639619
889,0233;0,064893
889,9875;0,0658421
890,9517;0,0667859
891,9160;0,0677001
892,8802;0,0685543
893,8444;0,0693091
894,8087;0,0699202
895,7729;0,0703479
896,7371;0,0705681
897,7014;0,0705776
898,6656;0,0703922
899,6298;0,0700385
900,5941;0,0695462
901,5583;0,0689429
902,5225;0,0682544
903,4868;0,0675062
904,4510;0,066727
905,4152;0,0659487
906,3795;0,0652056
907,3437;0,064531
908,3079;0,0639519
909,2722;0,0634842
910,2364;0,0631298
911,2007;0,0628763
912,1649;0,062703
913,1292;0,0625889
914,0934;0,0625211
915,0576;0,0625003
916,0219;0,0625386
916,9861;0,0626519
917,9503;0,0628488
918,9146;0,0631215
919,8788;0,0634448
920,8430;0,0637838
921,8073;0,0641074
922,7715;0,0644001
923,7357;0,0646666
924,7000;0,0649248
925,6642;0,065194
926,6284;0,0654833
927,5927;0,0657888
928,5569;0,0660986
929,5211;0,0664021
930,4854;0,0666968
931,4496;0,0669887
932,4138;0,0672879
933,3781;0,0676043
934,3423;0,067946
935,3065;0,0683216
936,2708;0,0687421
937,2350;0,0692208
938,1992;0,0697694
939,1635;0,0703955
940,1277;0,0711007
941,0919;0,0718829
942,0562;0,0727377
943,0204;0,0736594
943,9846;0,0746404
944,9489;0,0756721
945,9131;0,0767489
946,8773;0,077872
947,8416;0,0790518
948,8058;0,0803038
949,7700;0,0816406
950,7343;0,0830647
951,6985;0,0845673
952,6627;0,0861345
953,6270;0,087755
954,5912;0,0894254
955,5554;0,0911469
956,5197;0,09292
957,4839;0,0947383
958,4481;0,0965895
959,4124;0,0984592
960,3766;0,100335
961,3408;0,102205
962,3051;0,104062
963,2693;0,105896
964,2335;0,107704
965,1978;0,109491
966,1620;0,111275
967,1262;0,11308
968,0905;0,114927
969,0547;0,116833
970,0189;0,118814
970,9832;0,120886
971,9474;0,123077
972,9116;0,125416
973,8759;0,127929
974,8401;0,130625
975,8043;0,133495
976,7686;0,13651
977,7328;0,139637
978,6970;0,142837
979,6613;0,146063
980,6255;0,149257
981,5897;0,152348
982,5540;0,155261
983,5182;0,157935
984,4824;0,16033
985,4467;0,162437
986,4109;0,164275
987,3751;0,165876
988,3394;0,167276
989,3036;0,168506
990,2678;0,169587
991,2321;0,170533
992,1963;0,171357
993,1605;0,172073
994,1248;0,172701
995,0890;0,173269
996,0532;0,173804
997,0175;0,17433
997,9817;0,174866
998,9459;0,175424
999,9102;0,176021
1000,8744;0,176673
1001,8386;0,1774
1002,8029;0,178221
1003,7671;0,179151
1004,7313;0,180201
1005,6956;0,181383
1006,6598;0,182708
1007,6240;0,184189
1008,5883;0,185834
1009,5525;0,187641
1010,5167;0,189594
1011,4810;0,19166
1012,4452;0,193801
1013,4094;0,195969
1014,3737;0,198118
1015,3379;0,200203
1016,3021;0,202184
1017,2664;0,204027
1018,2306;0,205709
1019,1948;0,20722
1020,1591;0,208567
1021,1233;0,209769
1022,0875;0,210854
1023,0518;0,211849
1024,0160;0,212767
1024,9802;0,213601
1025,9445;0,214328
1026,9087;0,214921
1027,8729;0,215355
1028,8372;0,215617
1029,8014;0,215696
1030,7656;0,215584
1031,7299;0,215262
1032,6941;0,214711
1033,6583;0,213921
1034,6226;0,212909
1035,5868;0,211722
1036,5510;0,210436
1037,5153;0,209141
1038,4795;0,207922
1039,4437;0,206846
1040,4080;0,205945
1041,3722;0,205216
1042,3364;0,204625
1043,3007;0,204118
1044,2649;0,203635
1045,2291;0,203124
1046,1934;0,202546
1047,1576;0,201869
1048,1218;0,201069
1049,0861;0,200116
1050,0503;0,198988
1051,0145;0,197667
1051,9788;0,196155
1052,9430;0,194473
1053,9072;0,192656
1054,8715;0,190735
1055,8357;0,188727
1056,7999;0,186626
1057,7642;0,184409
1058,7284;0,182049
1059,6926;0,179537
1060,6569;0,176897
1061,6211;0,174182
1062,5853;0,171469
1063,5496;0,168835
1064,5138;0,166339
1065,4780;0,164012
1066,4423;0,161861
1067,4065;0,159877
1068,3707;0,158041
1069,3350;0,156327
1070,2992;0,154701
1071,2634;0,153117
1072,2277;0,151525
1073,1919;0,149883
1074,1561;0,148161
1075,1204;0,146355
1076,0846;0,144482
1077,0488;0,14258
1078,0131;0,140691
1078,9773;0,138863
1079,9415;0,137135
1080,9058;0,135541
1081,8700;0,134103
1082,8342;0,132831
1083,7985;0,131723
1084,7627;0,130763
1085,7269;0,12993
1086,6912;0,129195
1087,6554;0,128531
1088,6196;0,127918
1089,5839;0,127347
1090,5481;0,126819
1091,5123;0,126342
1092,4766;0,125922
1093,4408;0,12556
1094,4050;0,125249
1095,3693;0,12498
1096,3335;0,124742
1097,2977;0,12453
1098,2620;0,124337
1099,2262;0,124157
1100,1904;0,123981
1101,1547;0,123799
1102,1189;0,123594
1103,0831;0,123355
1104,0474;0,123068
1105,0116;0,122726
1105,9758;0,122329
1106,9401;0,121878
1107,9043;0,121376
1108,8685;0,120814
1109,8328;0,120173
1110,7970;0,119428
1111,7612;0,118556
1112,7255;0,117553
1113,6897;0,116438
1114,6539;0,115249
1115,6182;0,114041
1116,5824;0,112862
1117,5466;0,11175
1118,5109;0,110719
1119,4751;0,109755
1120,4393;0,108817
1121,4036;0,107841
1122,3678;0,106754
1123,3320;0,105493
1124,2963;0,10402
1125,2605;0,102329
1126,2247;0,100445
1127,1890;0,0984104
1128,1532;0,0962752
1129,1174;0,0940868
1130,0817;0,0918875
1131,0459;0,0897147
1132,0101;0,087603
1132,9744;0,0855852
1133,9386;0,0836932
1134,9028;0,0819584
1135,8671;0,0804107
1136,8313;0,0790763
1137,7955;0,0779739
1138,7598;0,0771115
1139,7240;0,076485
1140,6882;0,076079
1141,6525;0,0758696
1142,6167;0,0758283
1143,5809;0,0759264
1144,5452;0,0761392
1145,5094;0,0764481
1146,4736;0,0768404
1147,4379;0,0773061
1148,4021;0,0778344
1149,3663;0,0784103
1150,3306;0,0790142
1151,2948;0,079623
1152,2590;0,0802113
1153,2233;0,0807502
1154,1875;0,0812047
1155,1517;0,0815307
1156,1160;0,0816766
1157,0802;0,0815887
1158,0444;0,0812196
1159,0087;0,0805352
1159,9729;0,0795169
1160,9371;0,0781609
1161,9014;0,0764749
1162,8656;0,0744785
1163,8298;0,0722067
1164,7941;0,069714
1165,7583;0,0670758
1166,7225;0,0643825
1167,6868;0,0617275
1168,6510;0,0591909
1169,6152;0,0568275
1170,5795;0,0546635
1171,5437;0,0527019
1172,5079;0,0509351
1173,4722;0,0493546
1174,4364;0,0479559
1175,4006;0,0467352
1176,3649;0,0456849
1177,3291;0,0447899
1178,2933;0,0440303
1179,2576;0,0433852
1180,2218;0,0428369
1181,1860;0,0423721
1182,1503;0,041981
1183,1145;0,0416575
1184,0787;0,0414001
1185,0430;0,0412137
1186,0072;0,0411086
1186,9714;0,0410961
1187,9357;0,0411834
1188,8999;0,0413696
1189,8641;0,0416475
1190,8284;0,0420076
1191,7926;0,0424431
1192,7568;0,0429512
1193,7211;0,0435309
1194,6853;0,0441794
1195,6495;0,0448891
1196,6138;0,0456474
1197,5780;0,0464376
1198,5422;0,0472415
1199,5065;0,0480801
1200,4707;0,0488571
1201,4349;0,0496068
1202,3992;0,0503277
1203,3634;0,0510248
1204,3276;0,0517059
1205,2919;0,0523783
1206,2561;0,0530471
1207,2203;0,053716
1208,1846;0,0543923
1209,1488;0,0550904
1210,1130;0,0558316
1211,0773;0,0566393
1212,0415;0,0575304
1213,0057;0,0585072
1213,9700;0,059555
1214,9342;0,0606454
1215,8984;0,0617445
1216,8627;0,0628223
1217,8269;0,0638584
1218,7911;0,0648439
1219,7554;0,0657785
1220,7196;0,0666667
1221,6838;0,0675121
1222,6481;0,0683154
1223,6123;0,0690744
1224,5765;0,0697846
1225,5408;0,0704423
1226,5050;0,0710444
1227,4692;0,0715897
1228,4335;0,0720782
1229,3977;0,0725118
1230,3619;0,0728947
1231,3262;0,0732326
1232,2904;0,0735312
1233,2546;0,0737932
1234,2189;0,0740178
1235,1831;0,0742015
1236,1473;0,0743416
1237,1116;0,0744391
1238,0758;0,0744987
1239,0400;0,0745259
1240,0043;0,074523
1240,9685;0,0744865
1241,9327;0,0744089
1242,8970;0,0742817
1243,8612;0,0740996
1244,8254;0,0738615
1245,7897;0,0735696
1246,7539;0,073228
1247,7181;0,072843
1248,6824;0,0724232
1249,6466;0,0719803
1250,6108;0,0715267
1251,5751;0,0710723
1252,5393;0,0706216
1253,5035;0,0701737
1254,4678;0,0697237
1255,4320;0,0692659
1256,3962;0,0687957
1257,3605;0,0683095
1258,3247;0,0678044
1259,2889;0,0672773
1260,2532;0,0667245
1261,2174;0,0661415
1262,1816;0,0655242
1263,1459;0,0648692
1264,1101;0,0641757
1265,0743;0,0634451
1266,0386;0,0626803
1267,0028;0,0618827
1267,9670;0,0610515
1268,9313;0,0601846
1269,8955;0,0592822
1270,8597;0,0583501
1271,8240;0,0573999
1272,7882;0,0564465
1273,7524;0,0555033
1274,7167;0,0545801
1275,6809;0,0536832
1276,6451;0,0528175
1277,6094;0,0519867
1278,5736;0,0511925
1279,5378;0,0504339
1280,5021;0,0497073
1281,4663;0,0490096
1282,4305;0,0483401
1283,3948;0,047701
1284,3590;0,0470964
1285,3232;0,0465307
1286,2875;0,0460099
1287,2517;0,0455433
1288,2159;0,0451432
1289,1802;0,0448215
1290,1444;0,044585
1291,1086;0,0444315
1292,0729;0,0443521
1293,0371;0,0443359
1294,0013;0,0443756
1294,9656;0,0444698
1295,9298;0,0446202
1296,8940;0,0448286
1297,8583;0,0450941
1298,8225;0,0454131
1299,7867;0,0457809
1300,7510;0,046193
1301,7152;0,0466444
1302,6794;0,0471309
1303,6437;0,04765
1304,6079;0,0482012
1305,5721;0,0487865
1306,5364;0,049407
1307,5006;0,0500598
1308,4648;0,0507355
1309,4291;0,0514193
1310,3933;0,0520943
1311,3575;0,0527447
1312,3218;0,0533572
1313,2860;0,0539199
1314,2502;0,0544201
1315,2145;0,0548416
1316,1787;0,0551648
1317,1429;0,0553718
1318,1072;0,0554557
1319,0714;0,0554281
1320,0356;0,0553192
1320,9999;0,0551676
1321,9641;0,055005
1322,9283;0,0548484
1323,8926;0,0547007
1324,8568;0,0545576
1325,8210;0,0544149
1326,7853;0,0542718
1327,7495;0,0541293
1328,7137;0,0539853
1329,6780;0,0538316
1330,6422;0,0536546
1331,6064;0,0534404
1332,5707;0,0531797
1333,5349;0,0528671
1334,4991;0,0524973
1335,4634;0,0520583
1336,4276;0,0515346
1337,3918;0,0509217
1338,3561;0,0502475
1339,3203;0,0495785
1340,2845;0,04899
1341,2488;0,0485229
1342,2130;0,0481695
1343,1772;0,0478942
1344,1415;0,0476616
1345,1057;0,0474542
1346,0699;0,0472772
1347,0342;0,047153
1347,9984;0,0471081
1348,9626;0,0471585
1349,9269;0,0473012
1350,8911;0,0475178
1351,8553;0,0477855
1352,8196;0,0480904
1353,7838;0,0484348
1354,7480;0,0488336
1355,7123;0,0493006
1356,6765;0,0498336
1357,6407;0,0504114
