TITLE;
DATA TYPE;INFRARED SPECTRUM
ORIGIN;JASCO
OWNER;
DATE;25/02/25
TIME;14:56:31
SPECTROMETER/DATA SYSTEM;
LOCALE;9226
RESOLUTION;
DELTAX;0,964233
XUNITS;1/CM
YUNITS;ABSORBANCE
FIRSTX;  399,1927
LASTX; 4000,6047
NPOINTS;    3736
FIRSTY;     0,15191
MAXY;     0,17149
MINY;     0,00743
XYDATA
399,1927;0,151913
400,1569;0,148716
401,1211;0,146643
402,0854;0,145511
403,0496;0,144994
404,0138;0,14484
404,9781;0,144916
405,9423;0,145175
406,9065;0,145569
407,8708;0,145973
408,8350;0,146153
409,7992;0,145854
410,7635;0,144956
411,7277;0,143616
412,6919;0,142242
413,6562;0,141269
414,6204;0,14095
415,5846;0,141281
416,5489;0,14202
417,5131;0,142746
418,4773;0,14303
419,4416;0,142782
420,4058;0,142354
421,3700;0,142111
422,3343;0,142122
423,2985;0,142263
424,2627;0,142412
425,2270;0,142541
426,1912;0,142711
427,1554;0,142986
428,1197;0,143353
429,0839;0,143721
430,0481;0,143988
431,0124;0,144128
431,9766;0,144223
432,9408;0,1444
433,9051;0,14473
434,8693;0,145162
435,8335;0,145565
436,7978;0,145836
437,7620;0,145998
438,7262;0,146178
439,6905;0,146503
440,6547;0,146979
441,6189;0,14745
442,5832;0,147663
443,5474;0,147431
444,5116;0,146785
445,4759;0,145972
446,4401;0,145291
447,4043;0,144926
448,3686;0,144879
449,3328;0,145011
450,2970;0,145147
451,2613;0,145189
452,2255;0,145167
453,1897;0,145208
454,1540;0,145456
455,1182;0,145975
456,0824;0,146688
457,0467;0,147371
458,0109;0,147732
458,9751;0,147584
459,9394;0,146964
460,9036;0,146081
461,8678;0,145189
462,8321;0,1445
463,7963;0,144158
464,7605;0,144211
465,7248;0,144591
466,6890;0,14513
467,6532;0,145629
468,6175;0,145945
469,5817;0,146035
470,5459;0,14594
471,5102;0,145746
472,4744;0,145529
473,4386;0,145318
474,4029;0,14511
475,3671;0,144896
476,3313;0,14469
477,2956;0,144517
478,2598;0,144398
479,2240;0,144335
480,1883;0,144315
481,1525;0,144325
482,1167;0,144357
483,0810;0,144411
484,0452;0,144492
485,0094;0,144594
485,9737;0,144708
486,9379;0,144814
487,9021;0,144887
488,8664;0,144895
489,8306;0,144809
490,7948;0,144619
491,7591;0,144358
492,7233;0,144094
493,6875;0,143903
494,6518;0,14383
495,6160;0,143869
496,5802;0,143987
497,5445;0,144149
498,5087;0,144337
499,4729;0,144543
500,4372;0,14475
501,4014;0,144922
502,3656;0,145013
503,3299;0,145001
504,2941;0,14491
505,2583;0,144792
506,2226;0,144701
507,1868;0,144669
508,1510;0,144708
509,1153;0,144817
510,0795;0,145002
511,0437;0,145264
512,0080;0,145591
512,9722;0,145945
513,9365;0,14627
514,9007;0,146506
515,8649;0,146617
516,8292;0,146605
517,7934;0,146512
518,7576;0,146397
519,7219;0,14631
520,6861;0,146265
521,6503;0,146244
522,6146;0,146211
523,5788;0,146125
524,5430;0,145958
525,5073;0,14571
526,4715;0,145414
527,4357;0,145108
528,4000;0,14481
529,3642;0,144512
530,3284;0,144189
531,2927;0,143834
532,2569;0,143468
533,2211;0,143135
534,1854;0,14287
535,1496;0,142674
536,1138;0,142511
537,0781;0,142336
538,0423;0,142122
539,0065;0,141888
539,9708;0,141684
540,9350;0,14157
541,8992;0,14158
542,8635;0,141714
543,8277;0,141939
544,7919;0,142199
545,7562;0,142435
546,7204;0,142604
547,6846;0,142686
548,6489;0,142693
549,6131;0,142657
550,5773;0,142619
551,5416;0,142609
552,5058;0,142647
553,4700;0,14274
554,4343;0,142884
555,3985;0,143056
556,3627;0,143206
557,3270;0,143254
558,2912;0,143109
559,2554;0,142703
560,2197;0,142031
561,1839;0,141161
562,1481;0,140219
563,1124;0,139331
564,0766;0,138574
565,0408;0,137947
566,0051;0,137388
566,9693;0,136818
567,9335;0,1362
568,8978;0,135565
569,8620;0,135001
570,8262;0,134599
571,7905;0,134398
572,7547;0,13436
573,7189;0,134386
574,6832;0,134358
575,6474;0,134202
576,6116;0,133918
577,5759;0,133581
578,5401;0,13329
579,5043;0,133108
580,4686;0,133033
581,4328;0,133006
582,3970;0,132959
583,3613;0,13286
584,3255;0,132731
585,2897;0,132629
586,2540;0,132607
587,2182;0,132678
588,1824;0,132807
589,1467;0,132935
590,1109;0,133011
591,0751;0,133016
592,0394;0,132969
593,0036;0,132908
593,9678;0,132865
594,9321;0,132842
595,8963;0,132812
596,8605;0,132736
597,8248;0,132589
598,7890;0,132372
599,7532;0,132123
600,7175;0,131891
601,6817;0,131714
602,6459;0,131588
603,6102;0,131465
604,5744;0,131276
605,5386;0,130966
606,5029;0,130518
607,4671;0,12996
608,4313;0,129349
609,3956;0,128746
610,3598;0,128195
611,3240;0,127723
612,2883;0,127335
613,2525;0,127021
614,2167;0,12674
615,1810;0,126421
616,1452;0,125971
617,1094;0,12532
618,0737;0,124462
619,0379;0,123474
620,0021;0,122477
620,9664;0,121582
621,9306;0,12084
622,8948;0,120245
623,8591;0,119745
624,8233;0,119254
625,7875;0,118775
626,7518;0,118288
627,7160;0,117791
628,6802;0,117293
629,6445;0,116806
630,6087;0,116343
631,5729;0,11591
632,5372;0,115504
633,5014;0,115108
634,4656;0,114705
635,4299;0,114288
636,3941;0,113868
637,3583;0,113475
638,3226;0,113136
639,2868;0,112863
640,2510;0,11264
641,2153;0,112435
642,1795;0,112216
643,1437;0,111967
644,1080;0,111696
645,0722;0,111422
646,0364;0,111158
647,0007;0,110898
647,9649;0,110623
648,9291;0,110316
649,8934;0,109982
650,8576;0,109653
651,8218;0,109379
652,7861;0,1092
653,7503;0,109135
654,7145;0,109169
655,6788;0,109255
656,6430;0,109337
657,6072;0,109371
658,5715;0,109348
659,5357;0,109289
660,4999;0,109225
661,4642;0,109146
662,4284;0,108975
663,3926;0,108584
664,3569;0,107861
665,3211;0,106816
666,2853;0,10564
667,2496;0,104631
668,2138;0,103944
669,1780;0,103544
670,1423;0,10341
671,1065;0,10341
672,0707;0,103264
673,0350;0,102773
673,9992;0,101933
674,9634;0,100884
675,9277;0,099808
676,8919;0,0988222
677,8561;0,0979512
678,8204;0,0971655
679,7846;0,0964413
680,7488;0,0957755
681,7131;0,0951664
682,6773;0,094587
683,6415;0,0939974
684,6058;0,093379
685,5700;0,0927595
686,5342;0,0922032
687,4985;0,091773
688,4627;0,0914958
689,4269;0,0913374
690,3912;0,0912322
691,3554;0,0911166
692,3196;0,0909543
693,2839;0,0907422
694,2481;0,0905012
695,2123;0,0902603
696,1766;0,0900411
697,1408;0,0898468
698,1050;0,0896613
699,0693;0,0894563
700,0335;0,0892072
700,9977;0,0889059
701,9620;0,0885667
702,9262;0,0882188
703,8904;0,0878822
704,8547;0,0875736
705,8189;0,0872857
706,7831;0,0869932
707,7474;0,0866645
708,7116;0,0862765
709,6758;0,0858222
710,6401;0,0853095
711,6043;0,0847565
712,5685;0,0841865
713,5328;0,0836254
714,4970;0,0830993
715,4612;0,0820972
716,4255;0,0817981
717,3897;0,0815819
718,3539;0,0813746
719,3182;0,0810795
720,2824;0,0806231
721,2466;0,0799976
722,2109;0,0792644
723,1751;0,0785165
724,1393;0,0778311
725,1036;0,0772438
726,0678;0,076749
727,0320;0,0763166
727,9963;0,0759102
728,9605;0,0755017
729,9247;0,0750777
730,8890;0,0746412
731,8532;0,0742089
732,8174;0,0738031
733,7817;0,0734417
734,7459;0,07313
735,7101;0,0728593
736,6744;0,0726127
737,6386;0,072374
738,6028;0,0721324
739,5671;0,0718819
740,5313;0,0716192
741,4955;0,0713432
742,4598;0,071057
743,4240;0,0707688
744,3882;0,0704869
745,3525;0,070211
746,3167;0,0699278
747,2809;0,0696164
748,2452;0,0692615
749,2094;0,0688661
750,1736;0,0684524
751,1379;0,0680491
752,1021;0,0676749
753,0663;0,0673275
754,0306;0,0669891
754,9948;0,0666414
755,9590;0,0662806
756,9233;0,06592
757,8875;0,0655804
758,8517;0,0652741
759,8160;0,0649958
760,7802;0,0647257
761,7444;0,0644426
762,7087;0,0641369
763,6729;0,0638156
764,6371;0,0634951
765,6014;0,0631892
766,5656;0,0629007
767,5298;0,0626225
768,4941;0,0623475
769,4583;0,0620791
770,4225;0,0618323
771,3868;0,061625
772,3510;0,0614626
773,3152;0,0613293
774,2795;0,0611925
775,2437;0,0610184
776,2079;0,0607905
777,1722;0,060518
778,1364;0,0602287
779,1006;0,0599529
780,0649;0,0597076
781,0291;0,0594918
781,9933;0,0592929
782,9576;0,0590973
783,9218;0,0588977
784,8860;0,0586944
785,8503;0,0584907
786,8145;0,05829
787,7787;0,0580955
788,7430;0,0579109
789,7072;0,0577384
790,6714;0,0575758
791,6357;0,0574136
792,5999;0,0572381
793,5641;0,0570385
794,5284;0,0568149
795,4926;0,0565805
796,4568;0,056356
797,4211;0,0561596
798,3853;0,056
799,3495;0,0558756
800,3138;0,0557783
801,2780;0,0556978
802,2422;0,0556231
803,2065;0,0555408
804,1707;0,0554366
805,1349;0,0553005
806,0992;0,0551348
807,0634;0,0549562
808,0276;0,05479
808,9919;0,0546563
809,9561;0,0545586
810,9203;0,0544809
811,8846;0,0543978
812,8488;0,0542901
813,8130;0,0541561
814,7773;0,0540124
815,7415;0,0538824
816,7057;0,0537828
817,6700;0,053714
818,6342;0,0536617
819,5984;0,0536049
820,5627;0,0535275
821,5269;0,0534242
822,4911;0,053301
823,4554;0,0531695
824,4196;0,0530405
825,3839;0,0529188
826,3481;0,0528033
827,3123;0,0526905
828,2766;0,0525797
829,2408;0,0524747
830,2050;0,0523826
831,1693;0,0523069
832,1335;0,0522427
833,0977;0,0521753
834,0620;0,052086
835,0262;0,0519603
835,9904;0,0517952
836,9547;0,0516
837,9189;0,0513903
838,8831;0,0511802
839,8474;0,0509763
840,8116;0,0507781
841,7758;0,0505825
842,7401;0,0503904
843,7043;0,0502097
844,6685;0,0500536
845,6328;0,0499354
846,5970;0,0498607
847,5612;0,0498237
848,5255;0,0498069
849,4897;0,0497874
850,4539;0,0497449
851,4182;0,0496701
852,3824;0,0495674
853,3466;0,0494519
854,3109;0,0493412
855,2751;0,0492474
856,2393;0,0491732
857,2036;0,0491141
858,1678;0,0490641
859,1320;0,0490222
860,0963;0,0489947
861,0605;0,0489919
862,0247;0,0490221
862,9890;0,0490854
863,9532;0,0491727
864,9174;0,0492698
865,8817;0,0493662
866,8459;0,0494615
867,8101;0,0495669
868,7744;0,0496976
869,7386;0,0498622
870,7028;0,0500537
871,6671;0,0502494
872,6313;0,0504214
873,5955;0,0505511
874,5598;0,050639
875,5240;0,0507037
876,4882;0,05077
877,4525;0,0508555
878,4167;0,0509632
879,3809;0,0510869
880,3452;0,0512223
881,3094;0,0513778
882,2736;0,051574
883,2379;0,0518355
884,2021;0,0521784
885,1663;0,0526033
886,1306;0,0530969
887,0948;0,0536389
888,0590;0,0542105
889,0233;0,0547974
889,9875;0,0553889
890,9517;0,0559754
891,9160;0,0565464
892,8802;0,0570896
893,8444;0,0575898
894,8087;0,0580285
895,7729;0,0583837
896,7371;0,0586322
897,7014;0,0587535
898,6656;0,0587346
899,6298;0,0585729
900,5941;0,0582769
901,5583;0,0578654
902,5225;0,0573668
903,4868;0,0568175
904,4510;0,0562576
905,4152;0,0557252
906,3795;0,0552498
907,3437;0,0548482
908,3079;0,054526
909,2722;0,0542831
910,2364;0,0541182
911,2007;0,0540305
912,1649;0,0540163
913,1292;0,0540659
914,0934;0,0541629
915,0576;0,054289
916,0219;0,0544302
916,9861;0,054581
917,9503;0,0547431
918,9146;0,0549211
919,8788;0,0551179
920,8430;0,055333
921,8073;0,0555645
922,7715;0,0558108
923,7357;0,0560714
924,7000;0,0563451
925,6642;0,0566282
926,6284;0,0569142
927,5927;0,0571956
928,5569;0,0574661
929,5211;0,0577233
930,4854;0,0579696
931,4496;0,0582117
932,4138;0,0584602
933,3781;0,0587263
934,3423;0,0590194
935,3065;0,0593438
936,2708;0,0596979
937,2350;0,0600763
938,1992;0,060475
939,1635;0,0608953
940,1277;0,0613452
941,0919;0,0618359
942,0562;0,062376
943,0204;0,0629665
943,9846;0,0636002
944,9489;0,0642652
945,9131;0,0649511
946,8773;0,0656541
947,8416;0,0663778
948,8058;0,0671304
949,7700;0,0679207
950,7343;0,0687548
951,6985;0,0696356
952,6627;0,0705653
953,6270;0,0715474
954,5912;0,0725866
955,5554;0,073686
956,5197;0,0748435
957,4839;0,0760494
958,4481;0,0772888
959,4124;0,0785456
960,3766;0,0798074
961,3408;0,0810687
962,3051;0,0823293
963,2693;0,083592
964,2335;0,0848602
965,1978;0,0861373
966,1620;0,0874279
967,1262;0,0887389
968,0905;0,0900803
969,0547;0,0914651
970,0189;0,0929096
970,9832;0,0944319
971,9474;0,0960514
972,9116;0,0977853
973,8759;0,0996471
974,8401;0,101644
975,8043;0,103779
976,7686;0,106047
977,7328;0,10844
978,6970;0,110936
979,6613;0,113498
980,6255;0,11607
981,5897;0,118579
982,5540;0,120947
983,5182;0,123106
984,4824;0,125017
985,4467;0,126674
986,4109;0,128108
987,3751;0,129366
988,3394;0,130497
989,3036;0,131531
990,2678;0,132474
991,2321;0,133321
992,1963;0,134071
993,1605;0,134739
994,1248;0,13536
995,0890;0,135976
996,0532;0,136612
997,0175;0,137271
997,9817;0,137936
998,9459;0,138585
999,9102;0,139214
1000,8744;0,139845
1001,8386;0,140515
1002,8029;0,141259
1003,7671;0,142102
1004,7313;0,143052
1005,6956;0,144111
1006,6598;0,145282
1007,6240;0,146574
1008,5883;0,147996
1009,5525;0,149547
1010,5167;0,151214
1011,4810;0,152975
1012,4452;0,154796
1013,4094;0,156637
1014,3737;0,15845
1015,3379;0,160183
1016,3021;0,161786
1017,2664;0,163223
1018,2306;0,164479
1019,1948;0,165563
1020,1591;0,166498
1021,1233;0,16731
1022,0875;0,168023
1023,0518;0,168654
1024,0160;0,169217
1024,9802;0,169726
1025,9445;0,170188
1026,9087;0,170607
1027,8729;0,170971
1028,8372;0,17126
1029,8014;0,171444
1030,7656;0,171485
1031,7299;0,171346
1032,6941;0,170993
1033,6583;0,170409
1034,6226;0,169601
1035,5868;0,168611
1036,5510;0,167511
1037,5153;0,166392
1038,4795;0,165348
1039,4437;0,164456
1040,4080;0,16376
1041,3722;0,163268
1042,3364;0,162955
1043,3007;0,162772
1044,2649;0,162661
1045,2291;0,162564
1046,1934;0,162431
1047,1576;0,162222
1048,1218;0,161902
1049,0861;0,161443
1050,0503;0,16082
1051,0145;0,160019
1051,9788;0,159038
1052,9430;0,157896
1053,9072;0,156621
1054,8715;0,155247
1055,8357;0,153792
1056,7999;0,152249
1057,7642;0,15059
1058,7284;0,148782
1059,6926;0,146806
1060,6569;0,144679
1061,6211;0,142455
1062,5853;0,140211
1063,5496;0,138028
1064,5138;0,135968
1065,4780;0,134065
1066,4423;0,132328
1067,4065;0,13075
1068,3707;0,12931
1069,3350;0,127985
1070,2992;0,126744
1071,2634;0,125554
1072,2277;0,124382
1073,1919;0,123196
1074,1561;0,121969
1075,1204;0,120678
1076,0846;0,119307
1077,0488;0,117857
1078,0131;0,116347
1078,9773;0,114822
1079,9415;0,113337
1080,9058;0,111948
1081,8700;0,110695
1082,8342;0,109592
1083,7985;0,10863
1084,7627;0,107787
1085,7269;0,107036
1086,6912;0,106357
1087,6554;0,105736
1088,6196;0,105171
1089,5839;0,104671
1090,5481;0,104252
1091,5123;0,10393
1092,4766;0,103715
1093,4408;0,103598
1094,4050;0,103557
1095,3693;0,103564
1096,3335;0,103593
1097,2977;0,10363
1098,2620;0,103672
1099,2262;0,103722
1100,1904;0,103782
1101,1547;0,103845
1102,1189;0,103895
1103,0831;0,103915
1104,0474;0,103889
1105,0116;0,103809
1105,9758;0,103674
1106,9401;0,103484
1107,9043;0,103237
1108,8685;0,102919
1109,8328;0,102505
1110,7970;0,101969
1111,7612;0,101294
1112,7255;0,100481
1113,6897;0,0995559
1114,6539;0,0985656
1115,6182;0,097567
1116,5824;0,096614
1117,5466;0,0957436
1118,5109;0,0949658
1119,4751;0,0942592
1120,4393;0,093574
1121,4036;0,0928423
1122,3678;0,0919944
1123,3320;0,0909775
1124,2963;0,0897685
1125,2605;0,0883787
1126,2247;0,0868459
1127,1890;0,0852202
1128,1532;0,0835488
1129,1174;0,0818659
1130,0817;0,0801911
1131,0459;0,0785352
1132,0101;0,0769083
1132,9744;0,0753273
1133,9386;0,0738183
1134,9028;0,0724145
1135,8671;0,0711511
1136,8313;0,0700577
1137,7955;0,0691537
1138,7598;0,0684452
1139,7240;0,0679251
1140,6882;0,067576
1141,6525;0,0673733
1142,6167;0,0672896
1143,5809;0,067298
1144,5452;0,0673757
1145,5094;0,0675063
1146,4736;0,0676798
1147,4379;0,067892
1148,4021;0,0681413
1149,3663;0,0684257
1150,3306;0,0687397
1151,2948;0,0690719
1152,2590;0,0694045
1153,2233;0,0697134
1154,1875;0,0699689
1155,1517;0,0701379
1156,1160;0,0701854
1157,0802;0,0700773
1158,0444;0,0697813
1159,0087;0,0692683
1159,9729;0,068513
1160,9371;0,0674965
1161,9014;0,066211
1162,8656;0,0646652
1163,8298;0,0628888
1164,7941;0,0609334
1165,7583;0,0588676
1166,7225;0,0567682
1167,6868;0,0547087
1168,6510;0,0527496
1169,6152;0,0509318
1170,5795;0,049276
1171,5437;0,0477864
1172,5079;0,0464573
1173,4722;0,0452784
1174,4364;0,0442389
1175,4006;0,0433276
1176,3649;0,0425335
1177,3291;0,0418462
1178,2933;0,0412571
1179,2576;0,0407605
1180,2218;0,0403526
1181,1860;0,040029
1182,1503;0,0397816
1183,1145;0,0395992
1184,0787;0,0394695
1185,0430;0,0393843
1186,0072;0,0393425
1186,9714;0,0393498
1187,9357;0,0394161
1188,8999;0,0395507
1189,8641;0,0397598
1190,8284;0,0400457
1191,7926;0,0404071
1192,7568;0,0408397
1193,7211;0,041336
1194,6853;0,0418858
1195,6495;0,0424771
1196,6138;0,0430986
1197,5780;0,0437417
1198,5422;0,0444007
1199,5065;0,045022
1200,4707;0,0457079
1201,4349;0,0463985
1202,3992;0,0470886
1203,3634;0,0477742
1204,3276;0,0484529
1205,2919;0,0491246
1206,2561;0,0497907
1207,2203;0,0504546
1208,1846;0,051123
1209,1488;0,0518067
1210,1130;0,0525207
1211,0773;0,0532808
1212,0415;0,0540994
1213,0057;0,0549807
1213,9700;0,0559186
1214,9342;0,0568978
1215,8984;0,057897
1216,8627;0,0588925
1217,8269;0,0598626
1218,7911;0,0607916
1219,7554;0,0616714
1220,7196;0,0625006
1221,6838;0,0632821
1222,6481;0,064018
1223,6123;0,0647069
1224,5765;0,0653441
1225,5408;0,0659247
1226,5050;0,0664477
1227,4692;0,0669186
1228,4335;0,0673466
1229,3977;0,0677401
1230,3619;0,0681017
1231,3262;0,068427
1232,2904;0,0687069
1233,2546;0,0689328
1234,2189;0,0691017
1235,1831;0,0692178
1236,1473;0,0692915
1237,1116;0,0693342
1238,0758;0,0693534
1239,0400;0,0693496
1240,0043;0,0693164
1240,9685;0,0692448
1241,9327;0,0691278
1242,8970;0,068964
1243,8612;0,0687571
1244,8254;0,068512
1245,7897;0,0682313
1246,7539;0,0679134
1247,7181;0,0675556
1248,6824;0,0671584
1249,6466;0,0667278
1250,6108;0,0662752
1251,5751;0,0658135
1252,5393;0,0653532
1253,5035;0,0649006
1254,4678;0,0644567
1255,4320;0,0640184
1256,3962;0,0635788
1257,3605;0,0631285
1258,3247;0,0626576
1259,2889;0,0621577
1260,2532;0,0616241
1261,2174;0,0610558
1262,1816;0,0604547
1263,1459;0,0598246
1264,1101;0,0591706
1265,0743;0,058499
1266,0386;0,0578156
1267,0028;0,0571219
1267,9670;0,0564134
1268,9313;0,0556807
1269,8955;0,0549146
1270,8597;0,0541139
1271,8240;0,0532893
1272,7882;0,0524616
1273,7524;0,0516557
1274,7167;0,0508919
1275,6809;0,0501809
1276,6451;0,0495221
1277,6094;0,0489044
1278,5736;0,0483105
1279,5378;0,0477222
1280,5021;0,0471276
1281,4663;0,0465259
1282,4305;0,0459288
1283,3948;0,045356
1284,3590;0,0448269
1285,3232;0,0443532
1286,2875;0,0439354
1287,2517;0,0435641
1288,2159;0,0432258
1289,1802;0,0429104
1290,1444;0,0426147
1291,1086;0,0423441
1292,0729;0,042109
1293,0371;0,041921
1294,0013;0,0417891
1294,9656;0,0417182
1295,9298;0,0417081
1296,8940;0,0417547
1297,8583;0,0418512
1298,8225;0,0419905
1299,7867;0,0421661
1300,7510;0,042374
1301,7152;0,042614
1302,6794;0,0428893
1303,6437;0,0432042
1304,6079;0,0435619
1305,5721;0,0439613
1306,5364;0,0443965
1307,5006;0,0448589
1308,4648;0,0453393
1309,4291;0,0458292
1310,3933;0,046319
1311,3575;0,0467955
1312,3218;0,0472423
1313,2860;0,047643
1314,2502;0,0479851
1315,2145;0,0482602
1316,1787;0,0484602
1317,1429;0,0485745
1318,1072;0,0485938
1319,0714;0,0485189
1320,0356;0,0483686
1320,9999;0,0481772
1321,9641;0,0479826
1322,9283;0,047813
1323,8926;0,0476797
1324,8568;0,0475796
1325,8210;0,047501
1326,7853;0,0474308
1327,7495;0,0473585
1328,7137;0,0472768
1329,6780;0,0471799
1330,6422;0,0470634
1331,6064;0,0469269
1332,5707;0,0467754
1333,5349;0,0466191
1334,4991;0,0464656
1335,4634;0,0463111
1336,4276;0,0461328
1337,3918;0,0458899
1338,3561;0,0455409
1339,3203;0,045075
1340,2845;0,0445323
1341,2488;0,0439858
1342,2130;0,0435005
1343,1772;0,0431103
1344,1415;0,0428226
1345,1057;0,042632
1346,0699;0,0425303
1347,0342;0,0425095
1347,9984;0,0425624
1348,9626;0,0426826
1349,9269;0,0428649
1350,8911;0,0431036
1351,8553;0,0433918
1352,8196;0,0437231
1353,7838;0,0440943
1354,7480;0,044507
1355,7123;0,0449662
