TITLE;
DATA TYPE;INFRARED SPECTRUM
ORIGIN;JASCO
OWNER;
DATE;25/02/25
TIME;15:01:52
SPECTROMETER/DATA SYSTEM;
LOCALE;9226
RESOLUTION;
DELTAX;0,964233
XUNITS;1/CM
YUNITS;ABSORBANCE
FIRSTX;  399,1927
LASTX; 4000,6047
NPOINTS;    3736
FIRSTY;     0,11525
MAXY;     0,11525
MINY;     0,00560
XYDATA
399,1927;0,115253
400,1569;0,112523
401,1211;0,110689
402,0854;0,109616
403,0496;0,109005
404,0138;0,108565
404,9781;0,108095
405,9423;0,10754
406,9065;0,106994
407,8708;0,106614
408,8350;0,10648
409,7992;0,106501
410,7635;0,106462
411,7277;0,106184
412,6919;0,105691
413,6562;0,105222
414,6204;0,105095
415,5846;0,105534
416,5489;0,106543
417,5131;0,107782
418,4773;0,108592
419,4416;0,108472
420,4058;0,107622
421,3700;0,106664
422,3343;0,105995
423,2985;0,10565
424,2627;0,105486
425,2270;0,105357
426,1912;0,105204
427,1554;0,105052
428,1197;0,104942
429,0839;0,104882
430,0481;0,104845
431,0124;0,104831
431,9766;0,104903
432,9408;0,105175
433,9051;0,105724
434,8693;0,106511
435,8335;0,107365
436,7978;0,10806
437,7620;0,108451
438,7262;0,108538
439,6905;0,108443
440,6547;0,108316
441,6189;0,108249
442,5832;0,108235
443,5474;0,108181
444,5116;0,107989
445,4759;0,107634
446,4401;0,10718
447,4043;0,106731
448,3686;0,106361
449,3328;0,106067
450,2970;0,105773
451,2613;0,105387
452,2255;0,104892
453,1897;0,104401
454,1540;0,104147
455,1182;0,104402
456,0824;0,105328
457,0467;0,106806
458,0109;0,108358
458,9751;0,109344
459,9394;0,109374
460,9036;0,108512
461,8678;0,10716
462,8321;0,105819
463,7963;0,10492
464,7605;0,104706
465,7248;0,105168
466,6890;0,106062
467,6532;0,107048
468,6175;0,107841
469,5817;0,108297
470,5459;0,108404
471,5102;0,108226
472,4744;0,107843
473,4386;0,107322
474,4029;0,106724
475,3671;0,106119
476,3313;0,105597
477,2956;0,105248
478,2598;0,105121
479,2240;0,105189
480,1883;0,105344
481,1525;0,105444
482,1167;0,105377
483,0810;0,10513
484,0452;0,104795
485,0094;0,104515
485,9737;0,104401
486,9379;0,104466
487,9021;0,104639
488,8664;0,10481
489,8306;0,10488
490,7948;0,104799
491,7591;0,104572
492,7233;0,104252
493,6875;0,103914
494,6518;0,103632
495,6160;0,10346
496,5802;0,103418
497,5445;0,103496
498,5087;0,103649
499,4729;0,103807
500,4372;0,103894
501,4014;0,103857
502,3656;0,1037
503,3299;0,103484
504,2941;0,103294
505,2583;0,103187
506,2226;0,103172
507,1868;0,103208
508,1510;0,10324
509,1153;0,103235
510,0795;0,103204
511,0437;0,10319
512,0080;0,10324
512,9722;0,103375
513,9365;0,103579
514,9007;0,103808
515,8649;0,104004
516,8292;0,104117
517,7934;0,104123
518,7576;0,10404
519,7219;0,103918
520,6861;0,103809
521,6503;0,10374
522,6146;0,103698
523,5788;0,103638
524,5430;0,103509
525,5073;0,103287
526,4715;0,102996
527,4357;0,102697
528,4000;0,102437
529,3642;0,102211
530,3284;0,101973
531,2927;0,10167
532,2569;0,101288
533,2211;0,100875
534,1854;0,100514
535,1496;0,100281
536,1138;0,100193
537,0781;0,100206
538,0423;0,100241
539,0065;0,100234
539,9708;0,100164
540,9350;0,100058
541,8992;0,0999665
542,8635;0,0999344
543,8277;0,0999777
544,7919;0,100077
545,7562;0,100186
546,7204;0,100256
547,6846;0,100258
548,6489;0,100198
549,6131;0,100112
550,5773;0,100048
551,5416;0,10005
552,5058;0,100144
553,4700;0,100328
554,4343;0,100575
555,3985;0,100831
556,3627;0,101017
557,3270;0,101051
558,2912;0,100864
559,2554;0,100433
560,2197;0,0997914
561,1839;0,0990212
562,1481;0,0982279
563,1124;0,0975061
564,0766;0,0969134
565,0408;0,0964609
566,0051;0,0961202
566,9693;0,0958389
567,9335;0,0955598
568,8978;0,0952402
569,8620;0,0948659
570,8262;0,0944534
571,7905;0,0940398
572,7547;0,0936655
573,7189;0,0933594
574,6832;0,0931316
575,6474;0,0929752
576,6116;0,0928746
577,5759;0,0928153
578,5401;0,092786
579,5043;0,0927726
580,4686;0,0927502
581,4328;0,0926837
582,3970;0,092542
583,3613;0,0923198
584,3255;0,0920519
585,2897;0,0918069
586,2540;0,0916588
587,2182;0,091653
588,1824;0,0917839
589,1467;0,0919974
590,1109;0,0922132
591,0751;0,0923594
592,0394;0,0924008
593,0036;0,0923473
593,9678;0,0922364
594,9321;0,0921017
595,8963;0,0919529
596,8605;0,0917767
597,8248;0,0915572
598,7890;0,0912983
599,7532;0,0910335
600,7175;0,0908109
601,6817;0,0906624
602,6459;0,0905783
603,6102;0,0905084
604,5744;0,0903882
605,5386;0,0901751
606,5029;0,08987
607,4671;0,0895094
608,4313;0,0891372
609,3956;0,0887792
610,3598;0,0884402
611,3240;0,0881246
612,2883;0,0878557
613,2525;0,0876686
614,2167;0,087576
615,1810;0,0875294
616,1452;0,087414
617,1094;0,0870976
618,0737;0,0865144
619,0379;0,0857181
620,0021;0,084855
620,9664;0,0840802
621,9306;0,0834826
622,8948;0,0830622
623,8591;0,0827572
624,8233;0,0824724
625,7875;0,0822024
626,7518;0,0819352
627,7160;0,0816723
628,6802;0,0814025
629,6445;0,0811028
630,6087;0,080753
631,5729;0,0803569
632,5372;0,0799456
633,5014;0,079565
634,4656;0,0792547
635,4299;0,079033
636,3941;0,0788946
637,3583;0,0788171
638,3226;0,0787703
639,2868;0,078722
640,2510;0,0786431
641,2153;0,0785143
642,1795;0,078334
643,1437;0,0781211
644,1080;0,0779072
645,0722;0,0777211
646,0364;0,0775731
647,0007;0,0774496
647,9649;0,0773218
648,9291;0,0771642
649,8934;0,0769725
650,8576;0,0767672
651,8218;0,0765807
652,7861;0,0764382
653,7503;0,0763458
654,7145;0,0762882
655,6788;0,0762379
656,6430;0,0761698
657,6072;0,0760755
658,5715;0,0759652
659,5357;0,0758568
660,4999;0,0757526
661,4642;0,07562
662,4284;0,0753883
663,3926;0,0749722
664,3569;0,0743274
665,3211;0,0735281
666,2853;0,0728097
667,2496;0,0724522
668,2138;0,0724522
669,1780;0,0724908
670,1423;0,0724184
671,1065;0,0722579
672,0707;0,0719562
673,0350;0,0714554
673,9992;0,0707987
674,9634;0,0701096
675,9277;0,0695048
676,8919;0,0690179
677,8561;0,0685962
678,8204;0,0681613
679,7846;0,0676729
680,7488;0,0671423
681,7131;0,0666105
682,6773;0,0661104
683,6415;0,0656527
684,6058;0,0652343
685,5700;0,0648554
686,5342;0,0645256
687,4985;0,0642556
688,4627;0,0640475
689,4269;0,0638811
690,3912;0,063729
691,3554;0,0635705
692,3196;0,0634006
693,2839;0,0632276
694,2481;0,0630651
695,2123;0,0629225
696,1766;0,0627981
697,1408;0,0626786
698,1050;0,0625442
699,0693;0,0623756
700,0335;0,0621614
700,9977;0,0619013
701,9620;0,0616059
702,9262;0,0612947
703,8904;0,060983
704,8547;0,0606935
705,8189;0,0604393
706,7831;0,0602197
707,7474;0,060019
708,7116;0,0598111
709,6758;0,0595685
710,6401;0,0592721
711,6043;0,0589186
712,5685;0,0585246
713,5328;0,0581239
714,4970;0,0577584
715,4612;0,0570262
716,4255;0,0569033
717,3897;0,056871
718,3539;0,0568461
719,3182;0,0567206
720,2824;0,056414
721,2466;0,0559203
722,2109;0,0553126
723,1751;0,0546995
724,1393;0,0541686
725,1036;0,0537539
726,0678;0,0534365
727,0320;0,0531689
727,9963;0,0529038
728,9605;0,0526148
729,9247;0,0523015
730,8890;0,0519817
731,8532;0,0516794
732,8174;0,0514147
733,7817;0,051197
734,7459;0,0510221
735,7101;0,0508734
736,6744;0,050727
737,6386;0,0505608
738,6028;0,0503614
739,5671;0,0501273
740,5313;0,0498682
741,4955;0,0496003
742,4598;0,049343
743,4240;0,0491132
744,3882;0,04892
745,3525;0,0487571
746,3167;0,0486006
747,2809;0,0484156
748,2452;0,0481726
749,2094;0,0478661
750,1736;0,0475217
751,1379;0,0471859
752,1021;0,0469012
753,0663;0,0466827
754,0306;0,0465114
754,9948;0,046349
755,9590;0,0461636
756,9233;0,0459488
757,8875;0,0457236
758,8517;0,045515
759,8160;0,0453373
760,7802;0,0451837
761,7444;0,0450337
762,7087;0,0448693
763,6729;0,0446861
764,6371;0,0444919
765,6014;0,0442969
766,5656;0,0441048
767,5298;0,0439118
768,4941;0,0437137
769,4583;0,0435127
770,4225;0,0433178
771,3868;0,0431379
772,3510;0,0429735
773,3152;0,0428159
774,2795;0,0426529
775,2437;0,0424787
776,2079;0,0422988
777,1722;0,0421266
778,1364;0,0419736
779,1006;0,0418408
780,0649;0,0417175
781,0291;0,0415875
781,9933;0,0414395
782,9576;0,0412735
783,9218;0,0411
784,8860;0,0409321
785,8503;0,0407779
786,8145;0,040637
787,7787;0,0405028
788,7430;0,0403689
789,7072;0,0402338
790,6714;0,0401
791,6357;0,0399704
792,5999;0,0398441
793,5641;0,0397173
794,5284;0,0395872
795,4926;0,0394561
796,4568;0,0393323
797,4211;0,0392247
798,3853;0,0391379
799,3495;0,0390693
800,3138;0,0390116
801,2780;0,0389576
802,2422;0,0389027
803,2065;0,038845
804,1707;0,038782
805,1349;0,0387101
806,0992;0,0386265
807,0634;0,0385333
808,0276;0,0384373
808,9919;0,0383469
809,9561;0,0382657
810,9203;0,038189
811,8846;0,0381073
812,8488;0,0380129
813,8130;0,0379069
814,7773;0,0378012
815,7415;0,0377125
816,7057;0,0376531
817,6700;0,0376232
818,6342;0,0376085
819,5984;0,0375856
820,5627;0,0375315
821,5269;0,0374338
822,4911;0,0372971
823,4554;0,0371414
824,4196;0,0369937
825,3839;0,0368765
826,3481;0,0367984
827,3123;0,0367523
828,2766;0,0367225
829,2408;0,0366937
830,2050;0,0366586
831,1693;0,0366171
832,1335;0,0365709
833,0977;0,036517
834,0620;0,036446
835,0262;0,0363472
835,9904;0,0362161
836,9547;0,0360585
837,9189;0,0358893
838,8831;0,0357251
839,8474;0,0355769
840,8116;0,0354464
841,7758;0,0353272
842,7401;0,0352114
843,7043;0,0350948
844,6685;0,0349808
845,6328;0,0348782
846,5970;0,0347963
847,5612;0,0347383
848,5255;0,034698
849,4897;0,0346618
850,4539;0,0346148
851,4182;0,0345495
852,3824;0,0344704
853,3466;0,0343922
854,3109;0,0343323
855,2751;0,0343011
856,2393;0,0342964
857,2036;0,0343047
858,1678;0,0343088
859,1320;0,034297
860,0963;0,0342692
861,0605;0,0342363
862,0247;0,0342141
862,9890;0,0342158
863,9532;0,0342469
864,9174;0,0343048
865,8817;0,0343832
866,8459;0,034478
867,8101;0,0345896
868,7744;0,0347211
869,7386;0,0348715
870,7028;0,0350304
871,6671;0,0351769
872,6313;0,0352871
873,5955;0,035346
874,5598;0,0353573
875,5240;0,0353451
876,4882;0,0353442
877,4525;0,0353845
878,4167;0,0354781
879,3809;0,0356167
880,3452;0,0357796
881,3094;0,035948
882,2736;0,0361157
883,2379;0,0362921
884,2021;0,0364963
885,1663;0,0367473
886,1306;0,0370555
887,0948;0,0374199
888,0590;0,0378294
889,0233;0,0382674
889,9875;0,0387158
890,9517;0,0391585
891,9160;0,039582
892,8802;0,0399742
893,8444;0,0403229
894,8087;0,0406138
895,7729;0,0408315
896,7371;0,0409622
897,7014;0,0409971
898,6656;0,040934
899,6298;0,0407773
900,5941;0,0405358
901,5583;0,0402208
902,5225;0,0398469
903,4868;0,039433
904,4510;0,039003
905,4152;0,0385837
906,3795;0,0382009
907,3437;0,0378756
908,3079;0,0376212
909,2722;0,037443
910,2364;0,0373386
911,2007;0,0372976
912,1649;0,0373027
913,1292;0,0373325
914,0934;0,0373673
915,0576;0,0373959
916,0219;0,0374191
916,9861;0,0374494
917,9503;0,0375032
918,9146;0,0375927
919,8788;0,0377194
920,8430;0,0378743
921,8073;0,0380422
922,7715;0,0382094
923,7357;0,0383684
924,7000;0,0385185
925,6642;0,0386622
926,6284;0,038801
927,5927;0,0389329
928,5569;0,0390551
929,5211;0,0391683
930,4854;0,0392807
931,4496;0,0394061
932,4138;0,0395572
933,3781;0,0397382
934,3423;0,0399405
935,3065;0,040148
936,2708;0,0403479
937,2350;0,0405405
938,1992;0,0407425
939,1635;0,0409797
940,1277;0,0412748
941,0919;0,0416363
942,0562;0,0420561
943,0204;0,042516
943,9846;0,0429985
944,9489;0,0434961
945,9131;0,0440131
946,8773;0,0445605
947,8416;0,0451481
948,8058;0,045778
949,7700;0,0464429
950,7343;0,0471308
951,6985;0,0478325
952,6627;0,0485484
953,6270;0,0492896
954,5912;0,0500716
955,5554;0,0509055
956,5197;0,0517888
957,4839;0,0527044
958,4481;0,0536278
959,4124;0,0545383
960,3766;0,0554275
961,3408;0,0563008
962,3051;0,0571702
963,2693;0,058045
964,2335;0,0589258
965,1978;0,0598059
966,1620;0,0606783
967,1262;0,061543
968,0905;0,0624106
969,0547;0,0632994
970,0189;0,0642305
970,9832;0,0652215
971,9474;0,0662834
972,9116;0,0674201
973,8759;0,0686311
974,8401;0,0699141
975,8043;0,0712672
976,7686;0,0726898
977,7328;0,0741801
978,6970;0,0757294
979,6613;0,0773161
980,6255;0,0789021
981,5897;0,080436
982,5540;0,0818638
983,5182;0,0831433
984,4824;0,0842556
985,4467;0,085208
986,4109;0,0860263
987,3751;0,0867411
988,3394;0,0873756
989,3036;0,0879408
990,2678;0,0884391
991,2321;0,0888726
992,1963;0,0892489
993,1605;0,0895827
994,1248;0,0898907
995,0890;0,0901861
996,0532;0,0904762
997,0175;0,0907636
997,9817;0,0910506
998,9459;0,0913431
999,9102;0,0916502
1000,8744;0,0919825
1001,8386;0,0923489
1002,8029;0,0927555
1003,7671;0,0932082
1004,7313;0,0937147
1005,6956;0,094287
1006,6598;0,0949392
1007,6240;0,095684
1008,5883;0,0965278
1009,5525;0,0974668
1010,5167;0,0984848
1011,4810;0,0995535
1012,4452;0,100636
1013,4094;0,101693
1014,3737;0,102695
1015,3379;0,103624
1016,3021;0,104481
1017,2664;0,105279
1018,2306;0,106028
1019,1948;0,106733
1020,1591;0,107386
1021,1233;0,107976
1022,0875;0,108501
1023,0518;0,108967
1024,0160;0,109387
1024,9802;0,109777
1025,9445;0,110141
1026,9087;0,110477
1027,8729;0,11078
1028,8372;0,111043
1029,8014;0,111257
1030,7656;0,111405
1031,7299;0,111456
1032,6941;0,111373
1033,6583;0,111128
1034,6226;0,110713
1035,5868;0,110158
1036,5510;0,109514
1037,5153;0,10885
1038,4795;0,108228
1039,4437;0,107697
1040,4080;0,107285
1041,3722;0,106999
1042,3364;0,106828
1043,3007;0,106743
1044,2649;0,106704
1045,2291;0,10667
1046,1934;0,106605
1047,1576;0,106487
1048,1218;0,106302
1049,0861;0,10604
1050,0503;0,10569
1051,0145;0,105236
1051,9788;0,104669
1052,9430;0,10399
1053,9072;0,103214
1054,8715;0,102365
1055,8357;0,101461
1056,7999;0,100513
1057,7642;0,0995102
1058,7284;0,0984351
1059,6926;0,0972689
1060,6569;0,0960052
1061,6211;0,0946574
1062,5853;0,0932583
1063,5496;0,0918528
1064,5138;0,0904875
1065,4780;0,0892001
1066,4423;0,088013
1067,4065;0,086932
1068,3707;0,0859484
1069,3350;0,0850452
1070,2992;0,0842014
1071,2634;0,0833963
1072,2277;0,0826098
1073,1919;0,0818219
1074,1561;0,0810129
1075,1204;0,0801652
1076,0846;0,0792686
1077,0488;0,0783258
1078,0131;0,0773542
1078,9773;0,0763828
1079,9415;0,0754448
1080,9058;0,0745675
1081,8700;0,0737671
1082,8342;0,0730473
1083,7985;0,0724026
1084,7627;0,0718241
1085,7269;0,0713023
1086,6912;0,0708302
1087,6554;0,0704038
1088,6196;0,0700231
1089,5839;0,0696917
1090,5481;0,0694152
1091,5123;0,0691968
1092,4766;0,0690332
1093,4408;0,0689132
1094,4050;0,0688206
1095,3693;0,0687405
1096,3335;0,0686655
1097,2977;0,0685974
1098,2620;0,0685431
1099,2262;0,0685083
1100,1904;0,0684904
1101,1547;0,0684779
1102,1189;0,0684543
1103,0831;0,0684052
1104,0474;0,0683242
1105,0116;0,0682138
1105,9758;0,0680812
1106,9401;0,0679314
1107,9043;0,0677606
1108,8685;0,0675531
1109,8328;0,0672849
1110,7970;0,066932
1111,7612;0,0664808
1112,7255;0,0659366
1113,6897;0,0653247
1114,6539;0,0646832
1115,6182;0,0640505
1116,5824;0,0634535
1117,5466;0,0629012
1118,5109;0,0623868
1119,4751;0,0618936
1120,4393;0,0614003
1121,4036;0,0608836
1122,3678;0,0603179
1123,3320;0,0596767
1124,2963;0,0589371
1125,2605;0,0580877
1126,2247;0,057133
1127,1890;0,0560932
1128,1532;0,0549979
1129,1174;0,0538767
1130,0817;0,0527533
1131,0459;0,0516435
1132,0101;0,0505586
1132,9744;0,0495095
1133,9386;0,0485111
1134,9028;0,0475826
1135,8671;0,0467462
1136,8313;0,0460227
1137,7955;0,0454268
1138,7598;0,0449636
1139,7240;0,0446283
1140,6882;0,0444079
1141,6525;0,0442862
1142,6167;0,044247
1143,5809;0,0442764
1144,5452;0,0443625
1145,5094;0,0444947
1146,4736;0,044663
1147,4379;0,0448596
1148,4021;0,0450787
1149,3663;0,0453166
1150,3306;0,0455702
1151,2948;0,0458348
1152,2590;0,0461024
1153,2233;0,0463601
1154,1875;0,046589
1155,1517;0,0467645
1156,1160;0,0468574
1157,0802;0,0468375
1158,0444;0,0466782
1159,0087;0,0463596
1159,9729;0,0458701
1160,9371;0,0452051
1161,9014;0,0443657
1162,8656;0,0433598
1163,8298;0,0422045
1164,7941;0,0409297
1165,7583;0,0395782
1166,7225;0,0382009
1167,6868;0,0368479
1168,6510;0,0355597
1169,6152;0,0343614
1170,5795;0,0332633
1171,5437;0,0322668
1172,5079;0,0313707
1173,4722;0,0305755
1174,4364;0,0298825
1175,4006;0,0292895
1176,3649;0,0287871
1177,3291;0,0283587
1178,2933;0,0279848
1179,2576;0,0276502
1180,2218;0,0273489
1181,1860;0,0270844
1182,1503;0,0268649
1183,1145;0,0266973
1184,0787;0,026583
1185,0430;0,026517
1186,0072;0,026492
1186,9714;0,0265022
1187,9357;0,0265458
1188,8999;0,0266248
1189,8641;0,026742
1190,8284;0,0268979
1191,7926;0,0270897
1192,7568;0,0273128
1193,7211;0,0275639
1194,6853;0,0278435
1195,6495;0,0281553
1196,6138;0,0285018
1197,5780;0,0288801
1198,5422;0,0292797
1199,5065;0,0296163
1200,4707;0,0300186
1201,4349;0,0304025
1202,3992;0,0307687
1203,3634;0,0311245
1204,3276;0,031478
1205,2919;0,0318331
1206,2561;0,0321886
1207,2203;0,0325426
1208,1846;0,032897
1209,1488;0,0332604
1210,1130;0,0336458
1211,0773;0,0340645
1212,0415;0,0345206
1213,0057;0,0350085
1213,9700;0,0355158
1214,9342;0,0360289
1215,8984;0,0365383
1216,8627;0,0370397
1217,8269;0,0375322
1218,7911;0,0380155
1219,7554;0,0384873
1220,7196;0,0389425
1221,6838;0,0393755
1222,6481;0,0397822
1223,6123;0,0401599
1224,5765;0,0405073
1225,5408;0,0408242
1226,5050;0,0411116
1227,4692;0,0413729
1228,4335;0,0416139
1229,3977;0,0418412
1230,3619;0,042059
1231,3262;0,0422659
1232,2904;0,0424551
1233,2546;0,0426174
1234,2189;0,0427459
1235,1831;0,04284
1236,1473;0,0429055
1237,1116;0,0429515
1238,0758;0,0429854
1239,0400;0,043009
1240,0043;0,0430183
1240,9685;0,0430067
1241,9327;0,042969
1242,8970;0,0429043
1243,8612;0,0428153
1244,8254;0,0427051
1245,7897;0,0425745
1246,7539;0,0424214
1247,7181;0,0422436
1248,6824;0,0420415
1249,6466;0,0418205
1250,6108;0,0415884
1251,5751;0,0413531
1252,5393;0,0411193
1253,5035;0,0408889
1254,4678;0,040661
1255,4320;0,0404336
1256,3962;0,040203
1257,3605;0,0399647
1258,3247;0,0397132
1259,2889;0,0394446
1260,2532;0,0391577
1261,2174;0,0388546
1262,1816;0,0385382
1263,1459;0,0382104
1264,1101;0,0378713
1265,0743;0,0375202
1266,0386;0,0371567
1267,0028;0,03678
1267,9670;0,0363881
1268,9313;0,0359766
1269,8955;0,0355416
1270,8597;0,0350825
1271,8240;0,0346049
1272,7882;0,0341208
1273,7524;0,0336451
1274,7167;0,0331915
1275,6809;0,0327687
1276,6451;0,0323788
1277,6094;0,0320168
1278,5736;0,0316719
1279,5378;0,031331
1280,5021;0,0309842
1281,4663;0,0306302
1282,4305;0,0302773
1283,3948;0,0299405
1284,3590;0,0296341
1285,3232;0,0293653
1286,2875;0,0291322
1287,2517;0,0289264
1288,2159;0,0287385
1289,1802;0,0285637
1290,1444;0,0284032
1291,1086;0,0282626
1292,0729;0,0281492
1293,0371;0,02807
1294,0013;0,0280297
1294,9656;0,02803
1295,9298;0,0280682
1296,8940;0,0281377
1297,8583;0,0282305
1298,8225;0,0283403
1299,7867;0,0284661
1300,7510;0,0286122
1301,7152;0,0287867
1302,6794;0,0289955
1303,6437;0,029239
1304,6079;0,029511
1305,5721;0,0298013
1306,5364;0,0301001
1307,5006;0,0304026
1308,4648;0,0307094
1309,4291;0,0310238
1310,3933;0,0313461
1311,3575;0,0316698
1312,3218;0,0319822
1313,2860;0,0322689
1314,2502;0,0325186
1315,2145;0,0327248
1316,1787;0,0328818
1317,1429;0,0329823
1318,1072;0,033018
1319,0714;0,0329865
1320,0356;0,0328975
1320,9999;0,0327724
1321,9641;0,0326366
1322,9283;0,0325105
1323,8926;0,0324049
1324,8568;0,0323222
1325,8210;0,0322592
1326,7853;0,0322095
1327,7495;0,0321645
1328,7137;0,0321142
1329,6780;0,0320485
1330,6422;0,0319616
1331,6064;0,0318567
1332,5707;0,0317467
1333,5349;0,0316505
1334,4991;0,0315834
1335,4634;0,0315458
1336,4276;0,0315152
1337,3918;0,0314435
1338,3561;0,0312724
1339,3203;0,0309675
1340,2845;0,0305512
1341,2488;0,0300939
1342,2130;0,0296726
1343,1772;0,0293362
1344,1415;0,0291009
1345,1057;0,0289603
