TITLE;
DATA TYPE;INFRARED SPECTRUM
ORIGIN;JASCO
OWNER;
DATE;25/02/25
TIME;14:46:07
SPECTROMETER/DATA SYSTEM;
LOCALE;9226
RESOLUTION;
DELTAX;0,964233
XUNITS;1/CM
YUNITS;ABSORBANCE
FIRSTX;  399,1927
LASTX; 4000,6047
NPOINTS;    3736
FIRSTY;     0,14008
MAXY;     0,18890
MINY;     0,01153
XYDATA
399,1927;0,140076
400,1569;0,138017
401,1211;0,136936
402,0854;0,136653
403,0496;0,136798
404,0138;0,137057
404,9781;0,137272
405,9423;0,137459
406,9065;0,137733
407,8708;0,138162
408,8350;0,138661
409,7992;0,138993
410,7635;0,138921
411,7277;0,138396
412,6919;0,13764
413,6562;0,137041
414,6204;0,13695
415,5846;0,137558
416,5489;0,138833
417,5131;0,14046
418,4773;0,141848
419,4416;0,142506
420,4058;0,142528
421,3700;0,142382
422,3343;0,142377
423,2985;0,14251
424,2627;0,142633
425,2270;0,142642
426,1912;0,142585
427,1554;0,14263
428,1197;0,142924
429,0839;0,143459
430,0481;0,144057
431,0124;0,144489
431,9766;0,144633
432,9408;0,144571
433,9051;0,144537
434,8693;0,144743
435,8335;0,145232
436,7978;0,145856
437,7620;0,146405
438,7262;0,14675
439,6905;0,146893
440,6547;0,146897
441,6189;0,146785
442,5832;0,146497
443,5474;0,145949
444,5116;0,145147
445,4759;0,144228
446,4401;0,143401
447,4043;0,14282
448,3686;0,142509
449,3328;0,142378
450,2970;0,142282
451,2613;0,142113
452,2255;0,141852
453,1897;0,141558
454,1540;0,141324
455,1182;0,141223
456,0824;0,141286
457,0467;0,14148
458,0109;0,141715
458,9751;0,141876
459,9394;0,141879
460,9036;0,141703
461,8678;0,141387
462,8321;0,140998
463,7963;0,140612
464,7605;0,140291
465,7248;0,140069
466,6890;0,139942
467,6532;0,139888
468,6175;0,139891
469,5817;0,139953
470,5459;0,140087
471,5102;0,140285
472,4744;0,140505
473,4386;0,140684
474,4029;0,140787
475,3671;0,140823
476,3313;0,14084
477,2956;0,140882
478,2598;0,140969
479,2240;0,141084
480,1883;0,141193
481,1525;0,141274
482,1167;0,141334
483,0810;0,141412
484,0452;0,141556
485,0094;0,141796
485,9737;0,142126
486,9379;0,142521
487,9021;0,142948
488,8664;0,143379
489,8306;0,143778
490,7948;0,144102
491,7591;0,144312
492,7233;0,14439
493,6875;0,144359
494,6518;0,144271
495,6160;0,144184
496,5802;0,144136
497,5445;0,144149
498,5087;0,144243
499,4729;0,144448
500,4372;0,144794
501,4014;0,145276
502,3656;0,145827
503,3299;0,146327
504,2941;0,146657
505,2583;0,146768
506,2226;0,146703
507,1868;0,146586
508,1510;0,146566
509,1153;0,146754
510,0795;0,147178
511,0437;0,147784
512,0080;0,148469
512,9722;0,149131
513,9365;0,149699
514,9007;0,150141
515,8649;0,15046
516,8292;0,150682
517,7934;0,150841
518,7576;0,150966
519,7219;0,151071
520,6861;0,151155
521,6503;0,151207
522,6146;0,151209
523,5788;0,151152
524,5430;0,151037
525,5073;0,150887
526,4715;0,150733
527,4357;0,150595
528,4000;0,150465
529,3642;0,150311
530,3284;0,150103
531,2927;0,149831
532,2569;0,149518
533,2211;0,149207
534,1854;0,148942
535,1496;0,148741
536,1138;0,148597
537,0781;0,148493
538,0423;0,148422
539,0065;0,148395
539,9708;0,148427
540,9350;0,148524
541,8992;0,148677
542,8635;0,148861
543,8277;0,149052
544,7919;0,149235
545,7562;0,149415
546,7204;0,149613
547,6846;0,149855
548,6489;0,150164
549,6131;0,15055
550,5773;0,151007
551,5416;0,151516
552,5058;0,152056
553,4700;0,152609
554,4343;0,153157
555,3985;0,153673
556,3627;0,154107
557,3270;0,154383
558,2912;0,154413
559,2554;0,154128
560,2197;0,153507
561,1839;0,152599
562,1481;0,151512
563,1124;0,150385
564,0766;0,149347
565,0408;0,148482
566,0051;0,147813
566,9693;0,147311
567,9335;0,146921
568,8978;0,146585
569,8620;0,146268
570,8262;0,145955
571,7905;0,145647
572,7547;0,145348
573,7189;0,145059
574,6832;0,14478
575,6474;0,144513
576,6116;0,144267
577,5759;0,144054
578,5401;0,143882
579,5043;0,143754
580,4686;0,143656
581,4328;0,143572
582,3970;0,143485
583,3613;0,143391
584,3255;0,143306
585,2897;0,14326
586,2540;0,143284
587,2182;0,143394
588,1824;0,143574
589,1467;0,143781
590,1109;0,143962
591,0751;0,144072
592,0394;0,144092
593,0036;0,144029
593,9678;0,143905
594,9321;0,143732
595,8963;0,143502
596,8605;0,143203
597,8248;0,142832
598,7890;0,142416
599,7532;0,142009
600,7175;0,14167
601,6817;0,141428
602,6459;0,141266
603,6102;0,141128
604,5744;0,140946
605,5386;0,140675
606,5029;0,140308
607,4671;0,139873
608,4313;0,139411
609,3956;0,138948
610,3598;0,138488
611,3240;0,138015
612,2883;0,137519
613,2525;0,136997
614,2167;0,136452
615,1810;0,13588
616,1452;0,135259
617,1094;0,134556
618,0737;0,13375
619,0379;0,132849
620,0021;0,131891
620,9664;0,130923
621,9306;0,129986
622,8948;0,1291
623,8591;0,128271
624,8233;0,127492
625,7875;0,126758
626,7518;0,126064
627,7160;0,125403
628,6802;0,124775
629,6445;0,124181
630,6087;0,123621
631,5729;0,123093
632,5372;0,122589
633,5014;0,122098
634,4656;0,12161
635,4299;0,121119
636,3941;0,120629
637,3583;0,120148
638,3226;0,119685
639,2868;0,119253
640,2510;0,118858
641,2153;0,118502
642,1795;0,118175
643,1437;0,117858
644,1080;0,117524
645,0722;0,117155
646,0364;0,116746
647,0007;0,116312
647,9649;0,115881
648,9291;0,115488
649,8934;0,11516
650,8576;0,114917
651,8218;0,114765
652,7861;0,114701
653,7503;0,114722
654,7145;0,11482
655,6788;0,114984
656,6430;0,115197
657,6072;0,115427
658,5715;0,115635
659,5357;0,115778
660,4999;0,115831
661,4642;0,115805
662,4284;0,115747
663,3926;0,115706
664,3569;0,115702
665,3211;0,115702
666,2853;0,115589
667,2496;0,11514
668,2138;0,114165
669,1780;0,112833
670,1423;0,111576
671,1065;0,110582
672,0707;0,109735
673,0350;0,108862
673,9992;0,107852
674,9634;0,106691
675,9277;0,10545
676,8919;0,104228
677,8561;0,103097
678,8204;0,102066
679,7846;0,101119
680,7488;0,100246
681,7131;0,0994468
682,6773;0,0987213
683,6415;0,0980546
684,6058;0,0974286
685,5700;0,0968384
686,5342;0,0962995
687,4985;0,095835
688,4627;0,0954563
689,4269;0,0951509
690,3912;0,0948895
691,3554;0,0946431
692,3196;0,0943979
693,2839;0,0941577
694,2481;0,093935
695,2123;0,093737
696,1766;0,0935562
697,1408;0,093369
698,1050;0,0931453
699,0693;0,0928613
700,0335;0,0925112
700,9977;0,0921105
701,9620;0,0916901
702,9262;0,0912836
703,8904;0,0909125
704,8547;0,0905771
705,8189;0,0902558
706,7831;0,0899158
707,7474;0,0895305
708,7116;0,0890935
709,6758;0,0886192
710,6401;0,0881312
711,6043;0,0876457
712,5685;0,0871614
713,5328;0,0866628
714,4970;0,086134
715,4612;0,0855347
716,4255;0,0849555
717,3897;0,0843707
718,3539;0,0837894
719,3182;0,0832106
720,2824;0,0826277
721,2466;0,0820364
722,2109;0,0814376
723,1751;0,0808339
724,1393;0,0802246
725,1036;0,0796059
726,0678;0,0789761
727,0320;0,078341
727,9963;0,0777143
728,9605;0,0771132
729,9247;0,0765507
730,8890;0,0760316
731,8532;0,0755506
732,8174;0,0750957
733,7817;0,0746529
734,7459;0,0742124
735,7101;0,0737747
736,6744;0,0733514
737,6386;0,0729606
738,6028;0,0726152
739,5671;0,0723139
740,5313;0,0720404
741,4955;0,0717714
742,4598;0,0714893
743,4240;0,0711894
744,3882;0,0708766
745,3525;0,0705555
746,3167;0,0702235
747,2809;0,0698713
748,2452;0,0694924
749,2094;0,0690908
750,1736;0,068683
751,1379;0,0682901
752,1021;0,067927
753,0663;0,0675951
754,0306;0,0672834
754,9948;0,066975
755,9590;0,0666564
756,9233;0,0663222
757,8875;0,0659753
758,8517;0,0656238
759,8160;0,0652769
760,7802;0,0649427
761,7444;0,064627
762,7087;0,0643336
763,6729;0,0640619
764,6371;0,063806
765,6014;0,0635536
766,5656;0,0632899
767,5298;0,0630055
768,4941;0,0627035
769,4583;0,0624023
770,4225;0,0621275
771,3868;0,0618977
772,3510;0,0617119
773,3152;0,0615463
774,2795;0,0613655
775,2437;0,0611412
776,2079;0,060867
777,1722;0,0605603
778,1364;0,0602512
779,1006;0,0599654
780,0649;0,0597133
781,0291;0,05949
781,9933;0,0592828
782,9576;0,0590802
783,9218;0,0588761
784,8860;0,058668
785,8503;0,058456
786,8145;0,0582419
787,7787;0,0580309
788,7430;0,0578313
789,7072;0,0576493
790,6714;0,0574841
791,6357;0,0573257
792,5999;0,0571604
793,5641;0,0569796
794,5284;0,0567872
795,4926;0,0565989
796,4568;0,0564327
797,4211;0,0562991
798,3853;0,0561953
799,3495;0,0561085
800,3138;0,0560237
801,2780;0,0559304
802,2422;0,0558242
803,2065;0,0557043
804,1707;0,0555712
805,1349;0,0554277
806,0992;0,0552815
807,0634;0,0551447
808,0276;0,0550286
808,9919;0,0549364
809,9561;0,054859
810,9203;0,0547791
811,8846;0,0546818
812,8488;0,0545651
813,8130;0,0544413
814,7773;0,0543302
815,7415;0,0542478
816,7057;0,0541982
817,6700;0,0541742
818,6342;0,0541634
819,5984;0,0541542
820,5627;0,0541378
821,5269;0,0541071
822,4911;0,054056
823,4554;0,0539818
824,4196;0,0538885
825,3839;0,0537868
826,3481;0,05369
827,3123;0,0536063
828,2766;0,0535346
829,2408;0,0534659
830,2050;0,053389
831,1693;0,0532959
832,1335;0,0531841
833,0977;0,0530542
834,0620;0,052908
835,0262;0,0527479
835,9904;0,0525787
836,9547;0,0524078
837,9189;0,0522425
838,8831;0,052086
839,8474;0,0519349
840,8116;0,051781
841,7758;0,0516174
842,7401;0,0514437
843,7043;0,0512681
844,6685;0,0511034
845,6328;0,0509609
846,5970;0,0508445
847,5612;0,0507485
848,5255;0,0506607
849,4897;0,0505669
850,4539;0,0504574
851,4182;0,050331
852,3824;0,0501961
853,3466;0,0500679
854,3109;0,0499622
855,2751;0,0498884
856,2393;0,049846
857,2036;0,0498254
858,1678;0,0498146
859,1320;0,0498067
860,0963;0,0498043
861,0605;0,0498179
862,0247;0,0498593
862,9890;0,0499344
863,9532;0,0500403
864,9174;0,0501679
865,8817;0,0503074
866,8459;0,0504533
867,8101;0,0506053
868,7744;0,0507656
869,7386;0,0509353
870,7028;0,0511112
871,6671;0,0512855
872,6313;0,0514484
873,5955;0,0515913
874,5598;0,0517114
875,5240;0,051814
876,4882;0,0519129
877,4525;0,0520252
878,4167;0,0521651
879,3809;0,0523373
880,3452;0,0525375
881,3094;0,0527582
882,2736;0,0529985
883,2379;0,0532701
884,2021;0,053595
885,1663;0,0539957
886,1306;0,0544837
887,0948;0,0550525
888,0590;0,0556808
889,0233;0,0563405
889,9875;0,0570064
890,9517;0,0576598
891,9160;0,0582864
892,8802;0,058871
893,8444;0,0593936
894,8087;0,0598304
895,7729;0,0601576
896,7371;0,0603567
897,7014;0,0604178
898,6656;0,0603403
899,6298;0,0601319
900,5941;0,0598074
901,5583;0,059388
902,5225;0,058901
903,4868;0,0583784
904,4510;0,0578525
905,4152;0,0573508
906,3795;0,0568913
907,3437;0,0564813
908,3079;0,0561221
909,2722;0,0558148
910,2364;0,0555652
911,2007;0,055383
912,1649;0,0552755
913,1292;0,0552408
914,0934;0,0552652
915,0576;0,0553277
916,0219;0,0554091
916,9861;0,0554996
917,9503;0,055601
918,9146;0,0557221
919,8788;0,0558711
920,8430;0,0560504
921,8073;0,0562557
922,7715;0,0564778
923,7357;0,056707
924,7000;0,0569343
925,6642;0,0571528
926,6284;0,0573575
927,5927;0,0575457
928,5569;0,0577174
929,5211;0,0578762
930,4854;0,0580288
931,4496;0,0581843
932,4138;0,0583528
933,3781;0,0585426
934,3423;0,0587588
935,3065;0,0590024
936,2708;0,0592719
937,2350;0,0595664
938,1992;0,0598882
939,1635;0,0602434
940,1277;0,0606401
941,0919;0,0610863
942,0562;0,0615872
943,0204;0,0621465
943,9846;0,0627672
944,9489;0,0634523
945,9131;0,0642033
946,8773;0,0650183
947,8416;0,0658916
948,8058;0,0668154
949,7700;0,067784
950,7343;0,0687957
951,6985;0,0698532
952,6627;0,0709604
953,6270;0,0721191
954,5912;0,0733267
955,5554;0,0745767
956,5197;0,0758596
957,4839;0,0771666
958,4481;0,0784907
959,4124;0,0798285
960,3766;0,08118
961,3408;0,0825464
962,3051;0,0839272
963,2693;0,0853184
964,2335;0,0867123
965,1978;0,0881013
966,1620;0,0894824
967,1262;0,0908616
968,0905;0,0922557
969,0547;0,0936913
970,0189;0,0952008
970,9832;0,0968168
971,9474;0,0985661
972,9116;0,100466
973,8759;0,102523
974,8401;0,104736
975,8043;0,107107
976,7686;0,109639
977,7328;0,112335
978,6970;0,115183
979,6613;0,118139
980,6255;0,121122
981,5897;0,124023
982,5540;0,126732
983,5182;0,129165
984,4824;0,131285
985,4467;0,133103
986,4109;0,134662
987,3751;0,136013
988,3394;0,137199
989,3036;0,13825
990,2678;0,139182
991,2321;0,140009
992,1963;0,140744
993,1605;0,141407
994,1248;0,142018
995,0890;0,142601
996,0532;0,14318
997,0175;0,143771
997,9817;0,144385
998,9459;0,145024
999,9102;0,145683
1000,8744;0,146357
1001,8386;0,147049
1002,8029;0,14777
1003,7671;0,148542
1004,7313;0,149396
1005,6956;0,150366
1006,6598;0,151476
1007,6240;0,152744
1008,5883;0,154172
1009,5525;0,155751
1010,5167;0,157463
1011,4810;0,159282
1012,4452;0,161176
1013,4094;0,163107
1014,3737;0,165039
1015,3379;0,166938
1016,3021;0,168777
1017,2664;0,170541
1018,2306;0,172225
1019,1948;0,173828
1020,1591;0,175356
1021,1233;0,176821
1022,0875;0,178237
1023,0518;0,179622
1024,0160;0,180988
1024,9802;0,18234
1025,9445;0,183667
1026,9087;0,184944
1027,8729;0,186134
1028,8372;0,18719
1029,8014;0,188052
1030,7656;0,188649
1031,7299;0,188902
1032,6941;0,188739
1033,6583;0,188115
1034,6226;0,187034
1035,5868;0,185558
1036,5510;0,183806
1037,5153;0,181935
1038,4795;0,18011
1039,4437;0,17848
1040,4080;0,177156
1041,3722;0,176196
1042,3364;0,175602
1043,3007;0,175324
1044,2649;0,175275
1045,2291;0,175355
1046,1934;0,175472
1047,1576;0,175551
1048,1218;0,175537
1049,0861;0,17539
1050,0503;0,175074
1051,0145;0,174558
1051,9788;0,173822
1052,9430;0,172865
1053,9072;0,171699
1054,8715;0,170345
1055,8357;0,16881
1056,7999;0,167072
1057,7642;0,165084
1058,7284;0,162791
1059,6926;0,160157
1060,6569;0,157198
1061,6211;0,153988
1062,5853;0,150648
1063,5496;0,147316
1064,5138;0,144117
1065,4780;0,141138
1066,4423;0,138423
1067,4065;0,135981
1068,3707;0,133793
1069,3350;0,131821
1070,2992;0,130022
1071,2634;0,128344
1072,2277;0,126735
1073,1919;0,125145
1074,1561;0,123533
1075,1204;0,121871
1076,0846;0,120148
1077,0488;0,118372
1078,0131;0,116575
1078,9773;0,114804
1079,9415;0,113112
1080,9058;0,111548
1081,8700;0,110147
1082,8342;0,108922
1083,7985;0,10787
1084,7627;0,106976
1085,7269;0,106217
1086,6912;0,10557
1087,6554;0,105013
1088,6196;0,104531
1089,5839;0,104121
1090,5481;0,103792
1091,5123;0,103558
1092,4766;0,103432
1093,4408;0,103416
1094,4050;0,103503
1095,3693;0,103675
1096,3335;0,103918
1097,2977;0,104217
1098,2620;0,104559
1099,2262;0,104928
1100,1904;0,105299
1101,1547;0,105641
1102,1189;0,105922
1103,0831;0,106116
1104,0474;0,10621
1105,0116;0,106209
1105,9758;0,106127
1106,9401;0,105977
1107,9043;0,105762
1108,8685;0,105462
1109,8328;0,105035
1110,7970;0,104429
1111,7612;0,103605
1112,7255;0,102552
1113,6897;0,101302
1114,6539;0,0999278
1115,6182;0,0985212
1116,5824;0,0971726
1117,5466;0,0959465
1118,5109;0,0948671
1119,4751;0,0939154
1120,4393;0,0930354
1121,4036;0,0921497
1122,3678;0,0911781
1123,3320;0,0900549
1124,2963;0,0887428
1125,2605;0,0872377
1126,2247;0,0855653
1127,1890;0,0837705
1128,1532;0,0819037
1129,1174;0,0800087
1130,0817;0,0781157
1131,0459;0,076243
1132,0101;0,0744039
1132,9744;0,0726168
1133,9386;0,0709114
1134,9028;0,0693294
1135,8671;0,0679164
1136,8313;0,0667126
1137,7955;0,0657446
1138,7598;0,0650227
1139,7240;0,0645423
1140,6882;0,0642878
1141,6525;0,0642339
1142,6167;0,0643466
1143,5809;0,0645859
1144,5452;0,0649116
1145,5094;0,0652924
1146,4736;0,0657124
1147,4379;0,0661713
1148,4021;0,0666771
1149,3663;0,0672351
1150,3306;0,0678406
1151,2948;0,068477
1152,2590;0,0691207
1153,2233;0,0697467
1154,1875;0,070331
1155,1517;0,0708465
1156,1160;0,0712583
1157,0802;0,0715195
1158,0444;0,0715731
1159,0087;0,0713584
1159,9729;0,0708198
1160,9371;0,0699164
1161,9014;0,0686296
1162,8656;0,0669697
1163,8298;0,0649783
1164,7941;0,0627266
1165,7583;0,060308
1166,7225;0,0578253
1167,6868;0,0553767
1168,6510;0,0530427
1169,6152;0,050879
1170,5795;0,048916
1171,5437;0,0471639
1172,5079;0,0456208
1173,4722;0,0442785
1174,4364;0,0431246
1175,4006;0,0421431
1176,3649;0,0413128
1177,3291;0,0406097
1178,2933;0,0400106
1179,2576;0,039497
1180,2218;0,039057
1181,1860;0,0386842
1182,1503;0,0383747
1183,1145;0,0381251
1184,0787;0,0379327
1185,0430;0,0377978
1186,0072;0,0377244
1186,9714;0,0377186
1187,9357;0,0377862
1188,8999;0,0379296
1189,8641;0,0381462
1190,8284;0,0384308
1191,7926;0,0387767
1192,7568;0,0391788
1193,7211;0,039633
1194,6853;0,0401362
1195,6495;0,0406837
1196,6138;0,0412682
1197,5780;0,0418781
1198,5422;0,0424994
1199,5065;0,0430756
1200,4707;0,0436856
1201,4349;0,0442776
1202,3992;0,0448518
1203,3634;0,0454097
1204,3276;0,0459508
1205,2919;0,0464714
1206,2561;0,0469674
1207,2203;0,0474406
1208,1846;0,0479033
1209,1488;0,0483786
1210,1130;0,048895
1211,0773;0,0494775
1212,0415;0,0501392
1213,0057;0,0508778
1213,9700;0,0516779
1214,9342;0,0525176
1215,8984;0,053375
1216,8627;0,0542326
1217,8269;0,0550786
1218,7911;0,0559055
1219,7554;0,0567084
1220,7196;0,0574833
1221,6838;0,0582269
1222,6481;0,0589362
1223,6123;0,0596083
1224,5765;0,0602409
1225,5408;0,060833
1226,5050;0,0613853
1227,4692;0,0619012
1228,4335;0,0623855
1229,3977;0,0628428
1230,3619;0,063275
1231,3262;0,0636786
1232,2904;0,064045
1233,2546;0,0643623
1234,2189;0,0646201
1235,1831;0,0648136
1236,1473;0,0649465
1237,1116;0,0650302
1238,0758;0,0650791
1239,0400;0,0651046
1240,0043;0,0651102
1240,9685;0,0650908
1241,9327;0,0650363
1242,8970;0,0649365
1243,8612;0,0647853
1244,8254;0,0645815
1245,7897;0,0643267
1246,7539;0,0640234
1247,7181;0,0636742
1248,6824;0,0632837
1249,6466;0,0628601
1250,6108;0,0624151
1251,5751;0,0619619
1252,5393;0,0615113
1253,5035;0,0610686
1254,4678;0,0606327
1255,4320;0,0601969
1256,3962;0,0597519
1257,3605;0,0592889
1258,3247;0,0588024
1259,2889;0,0582908
1260,2532;0,0577559
1261,2174;0,0572
1262,1816;0,0566248
1263,1459;0,0560318
1264,1101;0,0554236
1265,0743;0,0548056
1266,0386;0,0541849
1267,0028;0,0535666
1267,9670;0,0529513
1268,9313;0,0523344
1269,8955;0,0517094
1270,8597;0,0510719
1271,8240;0,0504237
1272,7882;0,0497724
1273,7524;0,0491303
1274,7167;0,0485111
1275,6809;0,0479271
1276,6451;0,0473857
1277,6094;0,0468861
1278,5736;0,0464181
1279,5378;0,0459638
1280,5021;0,0455048
1281,4663;0,0450298
1282,4305;0,04454
1283,3948;0,0440484
1284,3590;0,0435742
1285,3232;0,0431358
1286,2875;0,0427458
1287,2517;0,042409
1288,2159;0,0421237
1289,1802;0,041884
1290,1444;0,0416833
1291,1086;0,0415178
1292,0729;0,0413887
1293,0371;0,0413028
1294,0013;0,0412704
1294,9656;0,0413008
1295,9298;0,0413989
1296,8940;0,0415633
1297,8583;0,0417883
1298,8225;0,0420671
1299,7867;0,0423939
1300,7510;0,0427645
1301,7152;0,0431758
1302,6794;0,0436251
1303,6437;0,04411
1304,6079;0,0446293
1305,5721;0,0451816
1306,5364;0,0457638
1307,5006;0,0463696
1308,4648;0,0469905
1309,4291;0,0476172
1310,3933;0,0482393
1311,3575;0,0488445
1312,3218;0,0494154
1313,2860;0,0499304
1314,2502;0,0503659
1315,2145;0,0507009
1316,1787;0,0509204
1317,1429;0,0510185
1318,1072;0,0510013
1319,0714;0,050888
1320,0356;0,0507079
1320,9999;0,0504924
1321,9641;0,0502674
1322,9283;0,0500502
1323,8926;0,0498516
1324,8568;0,0496793
1325,8210;0,0495383
1326,7853;0,0494293
1327,7495;0,0493459
1328,7137;0,0492754
1329,6780;0,0492013
1330,6422;0,0491087
1331,6064;0,0489879
1332,5707;0,0488351
1333,5349;0,0486504
1334,4991;0,0484314
1335,4634;0,0481684
1336,4276;0,0478428
1337,3918;0,0474347
1338,3561;0,0469381
1339,3203;0,0463784
1340,2845;0,0458102
1341,2488;0,0452902
1342,2130;0,0448489
1343,1772;0,0444876
1344,1415;0,0441933
1345,1057;0,0439551
1346,0699;0,0437719
1347,0342;0,0436515
1347,9984;0,0436061
1348,9626;0,0436446
1349,9269;0,0437672
1350,8911;0,0439628
1351,8553;0,0442128
1352,8196;0,0444989
1353,7838;0,044811
1354,7480;0,0451512
