TITLE;
DATA TYPE;INFRARED SPECTRUM
ORIGIN;JASCO
OWNER;
DATE;25/02/25
TIME;17:08:41
SPECTROMETER/DATA SYSTEM;
LOCALE;9226
RESOLUTION;
DELTAX;0,964233
XUNITS;1/CM
YUNITS;ABSORBANCE
FIRSTX;  399,1927
LASTX; 4000,6047
NPOINTS;    3736
FIRSTY;     0,13427
MAXY;     0,19091
MINY;     0,01050
XYDATA
399,1927;0,134269
400,1569;0,135146
401,1211;0,134904
402,0854;0,133709
403,0496;0,13196
404,0138;0,130119
404,9781;0,128651
405,9423;0,127939
406,9065;0,128158
407,8708;0,129204
408,8350;0,130746
409,7992;0,132356
410,7635;0,133665
411,7277;0,134478
412,6919;0,134816
413,6562;0,134841
414,6204;0,134731
415,5846;0,134614
416,5489;0,134588
417,5131;0,134784
418,4773;0,135383
419,4416;0,136481
420,4058;0,137944
421,3700;0,1395
422,3343;0,140912
423,2985;0,141991
424,2627;0,142571
425,2270;0,142559
426,1912;0,142018
427,1554;0,141182
428,1197;0,140369
429,0839;0,139835
430,0481;0,139695
431,0124;0,139896
431,9766;0,140262
432,9408;0,140573
433,9051;0,140653
434,8693;0,140427
435,8335;0,139938
436,7978;0,139312
437,7620;0,138686
438,7262;0,138145
439,6905;0,137687
440,6547;0,137248
441,6189;0,136749
442,5832;0,136154
443,5474;0,135502
444,5116;0,134883
445,4759;0,134371
446,4401;0,133973
447,4043;0,13364
448,3686;0,133309
449,3328;0,13295
450,2970;0,132576
451,2613;0,132232
452,2255;0,131952
453,1897;0,131742
454,1540;0,131569
455,1182;0,13138
456,0824;0,131117
457,0467;0,130733
458,0109;0,130237
458,9751;0,129706
459,9394;0,129267
460,9036;0,129019
461,8678;0,128988
462,8321;0,129111
463,7963;0,129252
464,7605;0,129249
465,7248;0,128986
466,6890;0,12846
467,6532;0,127779
468,6175;0,127102
469,5817;0,126563
470,5459;0,126235
471,5102;0,126118
472,4744;0,12617
473,4386;0,126349
474,4029;0,126641
475,3671;0,127068
476,3313;0,127657
477,2956;0,128396
478,2598;0,129212
479,2240;0,129972
480,1883;0,130537
481,1525;0,130841
482,1167;0,130935
483,0810;0,130987
484,0452;0,131191
485,0094;0,13165
485,9737;0,132313
486,9379;0,133011
487,9021;0,133573
488,8664;0,133911
489,8306;0,134047
490,7948;0,134076
491,7591;0,134108
492,7233;0,134212
493,6875;0,134397
494,6518;0,134639
495,6160;0,134915
496,5802;0,135223
497,5445;0,13557
498,5087;0,135943
499,4729;0,136301
500,4372;0,136584
501,4014;0,13675
502,3656;0,136825
503,3299;0,136902
504,2941;0,137101
505,2583;0,1375
506,2226;0,138089
507,1868;0,138779
508,1510;0,139446
509,1153;0,139989
510,0795;0,140378
511,0437;0,140654
512,0080;0,140883
512,9722;0,141127
513,9365;0,141421
514,9007;0,14179
515,8649;0,142256
516,8292;0,142826
517,7934;0,143461
518,7576;0,144062
519,7219;0,144506
520,6861;0,144714
521,6503;0,144699
522,6146;0,144557
523,5788;0,144429
524,5430;0,144439
525,5073;0,14463
526,4715;0,144935
527,4357;0,145203
528,4000;0,145299
529,3642;0,145166
530,3284;0,14484
531,2927;0,144409
532,2569;0,143964
533,2211;0,143571
534,1854;0,143264
535,1496;0,143063
536,1138;0,142984
537,0781;0,143036
538,0423;0,143198
539,0065;0,143407
539,9708;0,143573
540,9350;0,143623
541,8992;0,143547
542,8635;0,14341
543,8277;0,143323
544,7919;0,143388
545,7562;0,143641
546,7204;0,144035
547,6846;0,144471
548,6489;0,144851
549,6131;0,145131
550,5773;0,145334
551,5416;0,145537
552,5058;0,14582
553,4700;0,146235
554,4343;0,146773
555,3985;0,147363
556,3627;0,147897
557,3270;0,148263
558,2912;0,148386
559,2554;0,148245
560,2197;0,14787
561,1839;0,147322
562,1481;0,146676
563,1124;0,145996
564,0766;0,145334
565,0408;0,144726
566,0051;0,144191
566,9693;0,14374
567,9335;0,143377
568,8978;0,143104
569,8620;0,142922
570,8262;0,142824
571,7905;0,142793
572,7547;0,142802
573,7189;0,142814
574,6832;0,142795
575,6474;0,142729
576,6116;0,142622
577,5759;0,142497
578,5401;0,142381
579,5043;0,142286
580,4686;0,142206
581,4328;0,142122
582,3970;0,14202
583,3613;0,141895
584,3255;0,141756
585,2897;0,141615
586,2540;0,141486
587,2182;0,141381
588,1824;0,141313
589,1467;0,14129
590,1109;0,141303
591,0751;0,141321
592,0394;0,141286
593,0036;0,141143
593,9678;0,140872
594,9321;0,140504
595,8963;0,140108
596,8605;0,139761
597,8248;0,139511
598,7890;0,13935
599,7532;0,139224
600,7175;0,139061
601,6817;0,138809
602,6459;0,138455
603,6102;0,138027
604,5744;0,13757
605,5386;0,137125
606,5029;0,136718
607,4671;0,136354
608,4313;0,13602
609,3956;0,135692
610,3598;0,135342
611,3240;0,134944
612,2883;0,134487
613,2525;0,133974
614,2167;0,133421
615,1810;0,132847
616,1452;0,132261
617,1094;0,131657
618,0737;0,131012
619,0379;0,130295
620,0021;0,129485
620,9664;0,128583
621,9306;0,127617
622,8948;0,126643
623,8591;0,125731
624,8233;0,124951
625,7875;0,12432
626,7518;0,123818
627,7160;0,123387
628,6802;0,122964
629,6445;0,122509
630,6087;0,122018
631,5729;0,121514
632,5372;0,121019
633,5014;0,120545
634,4656;0,120087
635,4299;0,119636
636,3941;0,119193
637,3583;0,118772
638,3226;0,118393
639,2868;0,118059
640,2510;0,117757
641,2153;0,117457
642,1795;0,11713
643,1437;0,116768
644,1080;0,116384
645,0722;0,116009
646,0364;0,11567
647,0007;0,115383
647,9649;0,115145
648,9291;0,114942
649,8934;0,114758
650,8576;0,114593
651,8218;0,114456
652,7861;0,114366
653,7503;0,114333
654,7145;0,114359
655,6788;0,114433
656,6430;0,114535
657,6072;0,114642
658,5715;0,114728
659,5357;0,114761
660,4999;0,114715
661,4642;0,114591
662,4284;0,114427
663,3926;0,114285
664,3569;0,114215
665,3211;0,114215
666,2853;0,114198
667,2496;0,113987
668,2138;0,113415
669,1780;0,112501
670,1423;0,111419
671,1065;0,110295
672,0707;0,109151
673,0350;0,107958
673,9992;0,106687
674,9634;0,105345
675,9277;0,103989
676,8919;0,102694
677,8561;0,101497
678,8204;0,100396
679,7846;0,0993758
680,7488;0,0984482
681,7131;0,0976413
682,6773;0,0969722
683,6415;0,0964228
684,6058;0,0959454
685,5700;0,0954876
686,5342;0,0950183
687,4985;0,0945393
688,4627;0,0940796
689,4269;0,0936799
690,3912;0,0933686
691,3554;0,0931454
692,3196;0,0929795
693,2839;0,0928243
694,2481;0,0926392
695,2123;0,0924072
696,1766;0,0921361
697,1408;0,0918461
698,1050;0,0915526
699,0693;0,0912585
700,0335;0,0909583
700,9977;0,0906492
701,9620;0,090336
702,9262;0,0900276
703,8904;0,0897301
704,8547;0,0894355
705,8189;0,0891282
706,7831;0,0887942
707,7474;0,0884311
708,7116;0,0880492
709,6758;0,0876653
710,6401;0,0872914
711,6043;0,0869276
712,5685;0,0865605
713,5328;0,0861696
714,4970;0,0857356
715,4612;0,0853561
716,4255;0,0847916
717,3897;0,0841756
718,3539;0,0835343
719,3182;0,0829017
720,2824;0,0823063
721,2466;0,0817577
722,2109;0,0812409
723,1751;0,0807273
724,1393;0,0801936
725,1036;0,0796362
726,0678;0,0790732
727,0320;0,0785332
727,9963;0,0780366
728,9605;0,0775816
729,9247;0,0771445
730,8890;0,076695
731,8532;0,0762159
732,8174;0,0757142
733,7817;0,0752177
734,7459;0,0747602
735,7101;0,0743647
736,6744;0,074034
737,6386;0,073751
738,6028;0,073487
739,5671;0,0732121
740,5313;0,0729052
741,4955;0,0725594
742,4598;0,0721831
743,4240;0,0717962
744,3882;0,0714209
745,3525;0,0710717
746,3167;0,0707473
747,2809;0,0704309
748,2452;0,0700993
749,2094;0,0697365
750,1736;0,0693441
751,1379;0,0689424
752,1021;0,0685594
753,0663;0,0682139
754,0306;0,0679034
754,9948;0,0676046
755,9590;0,0672851
756,9233;0,0669211
757,8875;0,066511
758,8517;0,0660773
759,8160;0,0656575
760,7802;0,0652887
761,7444;0,0649914
762,7087;0,0647612
763,6729;0,0645699
764,6371;0,0643778
765,6014;0,0641516
766,5656;0,0638807
767,5298;0,063582
768,4941;0,0632901
769,4583;0,0630369
770,4225;0,0628341
771,3868;0,0626674
772,3510;0,0625068
773,3152;0,0623259
774,2795;0,0621161
775,2437;0,0618886
776,2079;0,0616637
777,1722;0,0614578
778,1364;0,0612754
779,1006;0,0611099
780,0649;0,0609495
781,0291;0,0607819
781,9933;0,0605962
782,9576;0,0603833
783,9218;0,060139
784,8860;0,0598673
785,8503;0,0595835
786,8145;0,0593103
787,7787;0,0590691
788,7430;0,0588702
789,7072;0,0587091
790,6714;0,0585705
791,6357;0,0584379
792,5999;0,0583022
793,5641;0,0581646
794,5284;0,0580329
795,4926;0,0579142
796,4568;0,0578101
797,4211;0,0577161
798,3853;0,0576246
799,3495;0,0575301
800,3138;0,0574323
801,2780;0,0573361
802,2422;0,0572476
803,2065;0,0571695
804,1707;0,0570973
805,1349;0,0570202
806,0992;0,0569271
807,0634;0,0568136
808,0276;0,0566878
808,9919;0,0565674
809,9561;0,056471
810,9203;0,0564073
811,8846;0,056369
812,8488;0,056336
813,8130;0,056286
814,7773;0,0562063
815,7415;0,0560994
816,7057;0,0559797
817,6700;0,0558655
818,6342;0,0557693
819,5984;0,055694
820,5627;0,0556347
821,5269;0,0555833
822,4911;0,0555322
823,4554;0,0554757
824,4196;0,0554096
825,3839;0,0553303
826,3481;0,0552359
827,3123;0,0551282
828,2766;0,0550131
829,2408;0,0548998
830,2050;0,0547966
831,1693;0,054708
832,1335;0,054632
833,0977;0,0545615
834,0620;0,0544865
835,0262;0,0543955
835,9904;0,054278
836,9547;0,0541264
837,9189;0,0539393
838,8831;0,053725
839,8474;0,0535024
840,8116;0,0532957
841,7758;0,0531255
842,7401;0,0529989
843,7043;0,052906
844,6685;0,0528261
845,6328;0,0527392
846,5970;0,0526373
847,5612;0,0525275
848,5255;0,052425
849,4897;0,0523424
850,4539;0,0522816
851,4182;0,0522332
852,3824;0,0521838
853,3466;0,0521247
854,3109;0,0520565
855,2751;0,0519874
856,2393;0,0519275
857,2036;0,0518834
858,1678;0,0518571
859,1320;0,0518482
860,0963;0,0518565
861,0605;0,0518843
862,0247;0,0519341
862,9890;0,0520065
863,9532;0,0520993
864,9174;0,0522078
865,8817;0,0523278
866,8459;0,0524571
867,8101;0,0525955
868,7744;0,0527427
869,7386;0,0528966
870,7028;0,0530524
871,6671;0,0532045
872,6313;0,053348
873,5955;0,0534804
874,5598;0,053602
875,5240;0,0537153
876,4882;0,0538262
877,4525;0,0539441
878,4167;0,0540824
879,3809;0,054256
880,3452;0,054478
881,3094;0,0547568
882,2736;0,0550958
883,2379;0,055497
884,2021;0,055964
885,1663;0,0565033
886,1306;0,0571203
887,0948;0,0578139
888,0590;0,0585721
889,0233;0,0593721
889,9875;0,060184
890,9517;0,0609774
891,9160;0,0617244
892,8802;0,0624013
893,8444;0,062988
894,8087;0,0634665
895,7729;0,0638211
896,7371;0,064037
897,7014;0,0641012
898,6656;0,0640032
899,6298;0,0637395
900,5941;0,0633189
901,5583;0,0627672
902,5225;0,0621256
903,4868;0,061442
904,4510;0,0607598
905,4152;0,0601089
906,3795;0,059505
907,3437;0,0589571
908,3079;0,0584755
909,2722;0,0580741
910,2364;0,0577645
911,2007;0,0575463
912,1649;0,0574025
913,1292;0,0573062
914,0934;0,0572345
915,0576;0,0571824
916,0219;0,0571657
916,9861;0,0572095
917,9503;0,0573298
918,9146;0,0575185
919,8788;0,0577431
920,8430;0,0579615
921,8073;0,0581429
922,7715;0,0582823
923,7357;0,0584007
924,7000;0,0585306
925,6642;0,0586971
926,6284;0,0589047
927,5927;0,0591371
928,5569;0,0593685
929,5211;0,0595786
930,4854;0,0597619
931,4496;0,0599279
932,4138;0,0600925
933,3781;0,0602704
934,3423;0,0604695
935,3065;0,060694
936,2708;0,0609478
937,2350;0,0612385
938,1992;0,0615754
939,1635;0,0619662
940,1277;0,0624129
941,0919;0,0629127
942,0562;0,0634603
943,0204;0,0640528
943,9846;0,064691
944,9489;0,0653797
945,9131;0,0661245
946,8773;0,0669295
947,8416;0,0677959
948,8058;0,0687213
949,7700;0,0697012
950,7343;0,0707313
951,6985;0,0718099
952,6627;0,0729398
953,6270;0,0741269
954,5912;0,0753765
955,5554;0,076688
956,5197;0,0780531
957,4839;0,0794577
958,4481;0,0808873
959,4124;0,0823322
960,3766;0,0837876
961,3408;0,0852508
962,3051;0,0867164
963,2693;0,0881754
964,2335;0,08962
965,1978;0,0910508
966,1620;0,0924809
967,1262;0,0939346
968,0905;0,0954398
969,0547;0,0970212
970,0189;0,0986962
970,9832;0,100477
971,9474;0,102375
972,9116;0,104403
973,8759;0,106576
974,8401;0,108908
975,8043;0,111406
976,7686;0,114075
977,7328;0,116907
978,6970;0,119874
979,6613;0,122927
980,6255;0,125988
981,5897;0,12896
982,5540;0,131744
983,5182;0,134261
984,4824;0,13647
985,4467;0,138373
986,4109;0,140005
987,3751;0,141421
988,3394;0,142672
989,3036;0,143795
990,2678;0,144806
991,2321;0,145703
992,1963;0,146479
993,1605;0,147135
994,1248;0,147688
995,0890;0,148177
996,0532;0,148647
997,0175;0,149139
997,9817;0,149673
998,9459;0,150249
999,9102;0,150856
1000,8744;0,151488
1001,8386;0,152157
1002,8029;0,152893
1003,7671;0,153731
1004,7313;0,154699
1005,6956;0,155809
1006,6598;0,157061
1007,6240;0,15845
1008,5883;0,159972
1009,5525;0,161631
1010,5167;0,163425
1011,4810;0,165347
1012,4452;0,16737
1013,4094;0,169451
1014,3737;0,171533
1015,3379;0,173556
1016,3021;0,175471
1017,2664;0,177245
1018,2306;0,178871
1019,1948;0,180356
1020,1591;0,181722
1021,1233;0,18299
1022,0875;0,184183
1023,0518;0,185319
1024,0160;0,186407
1024,9802;0,187447
1025,9445;0,188421
1026,9087;0,189294
1027,8729;0,190023
1028,8372;0,190561
1029,8014;0,190867
1030,7656;0,190906
1031,7299;0,190649
1032,6941;0,190076
1033,6583;0,189179
1034,6226;0,187978
1035,5868;0,186528
1036,5510;0,18492
1037,5153;0,18327
1038,4795;0,181697
1039,4437;0,180292
1040,4080;0,17911
1041,3722;0,178157
1042,3364;0,177402
1043,3007;0,176789
1044,2649;0,176252
1045,2291;0,175733
1046,1934;0,175182
1047,1576;0,174567
1048,1218;0,173863
1049,0861;0,173045
1050,0503;0,172091
1051,0145;0,170975
1051,9788;0,169684
1052,9430;0,16822
1053,9072;0,1666
1054,8715;0,164854
1055,8357;0,163
1056,7999;0,16104
1057,7642;0,158949
1058,7284;0,156695
1059,6926;0,154258
1060,6569;0,151654
1061,6211;0,148939
1062,5853;0,146198
1063,5496;0,143522
1064,5138;0,140976
1065,4780;0,138598
1066,4423;0,136395
1067,4065;0,134359
1068,3707;0,132479
1069,3350;0,130742
1070,2992;0,129128
1071,2634;0,127606
1072,2277;0,126129
1073,1919;0,12465
1074,1561;0,123128
1075,1204;0,121549
1076,0846;0,11992
1077,0488;0,11827
1078,0131;0,116637
1078,9773;0,115064
1079,9415;0,113588
1080,9058;0,112245
1081,8700;0,111059
1082,8342;0,110045
1083,7985;0,109201
1084,7627;0,108506
1085,7269;0,107931
1086,6912;0,107442
1087,6554;0,107012
1088,6196;0,106626
1089,5839;0,106283
1090,5481;0,105992
1091,5123;0,105764
1092,4766;0,105606
1093,4408;0,105515
1094,4050;0,10548
1095,3693;0,105489
1096,3335;0,105533
1097,2977;0,105603
1098,2620;0,105698
1099,2262;0,10581
1100,1904;0,105928
1101,1547;0,106031
1102,1189;0,106095
1103,0831;0,106097
1104,0474;0,10602
1105,0116;0,105859
1105,9758;0,105619
1106,9401;0,105309
1107,9043;0,104934
1108,8685;0,104488
1109,8328;0,103953
1110,7970;0,103302
1111,7612;0,102511
1112,7255;0,101574
1113,6897;0,10051
1114,6539;0,0993633
1115,6182;0,0981938
1116,5824;0,0970631
1117,5466;0,0960184
1118,5109;0,09508
1119,4751;0,0942343
1120,4393;0,0934361
1121,4036;0,0926178
1122,3678;0,0917057
1123,3320;0,0906384
1124,2963;0,0893819
1125,2605;0,0879356
1126,2247;0,0863295
1127,1890;0,0846116
1128,1532;0,0828333
1129,1174;0,0810366
1130,0817;0,0792487
1131,0459;0,0774843
1132,0101;0,0757544
1132,9744;0,0740761
1133,9386;0,0724791
1134,9028;0,0710049
1135,8671;0,0696989
1136,8313;0,0685998
1137,7955;0,0677298
1138,7598;0,0670912
1139,7240;0,0666681
1140,6882;0,0664331
1141,6525;0,0663544
1142,6167;0,0664012
1143,5809;0,0665481
1144,5452;0,0667769
1145,5094;0,0670765
1146,4736;0,0674419
1147,4379;0,0678709
1148,4021;0,0683614
1149,3663;0,0689086
1150,3306;0,0695032
1151,2948;0,0701297
1152,2590;0,070766
1153,2233;0,0713822
1154,1875;0,0719415
1155,1517;0,0724027
1156,1160;0,0727239
1157,0802;0,0728651
1158,0444;0,0727895
1159,0087;0,0724622
1159,9729;0,0718503
1160,9371;0,070925
1161,9014;0,0696679
1162,8656;0,0680788
1163,8298;0,0661835
1164,7941;0,0640355
1165,7583;0,0617133
1166,7225;0,0593105
1167,6868;0,0569229
1168,6510;0,054634
1169,6152;0,0525032
1170,5795;0,0505609
1171,5437;0,0488121
1172,5079;0,0472464
1173,4722;0,0458497
1174,4364;0,0446128
1175,4006;0,0435323
1176,3649;0,0426061
1177,3291;0,041827
1178,2933;0,0411802
1179,2576;0,0406442
1180,2218;0,0401963
1181,1860;0,0398172
1182,1503;0,0394942
1183,1145;0,0392225
1184,0787;0,0390036
1185,0430;0,0388442
1186,0072;0,0387527
1186,9714;0,0387361
1187,9357;0,038798
1188,8999;0,0389386
1189,8641;0,0391568
1190,8284;0,0394531
1191,7926;0,0398301
1192,7568;0,0402895
1193,7211;0,0408269
1194,6853;0,0414288
1195,6495;0,0420734
1196,6138;0,0427357
1197,5780;0,0433951
1198,5422;0,044039
1199,5065;0,0446632
1200,4707;0,0452708
1201,4349;0,0458636
1202,3992;0,0464417
1203,3634;0,0470022
1204,3276;0,0475406
1205,2919;0,0480537
1206,2561;0,0485425
1207,2203;0,049015
1208,1846;0,0494871
1209,1488;0,0499812
1210,1130;0,0505214
1211,0773;0,0511278
1212,0415;0,0518107
1213,0057;0,0525676
1213,9700;0,0533849
1214,9342;0,0542418
1215,8984;0,0551158
1216,8627;0,0559871
1217,8269;0,0568408
1218,7911;0,0576675
1219,7554;0,0584619
1220,7196;0,0592213
1221,6838;0,0599444
1222,6481;0,0606299
1223,6123;0,0612771
1224,5765;0,0618864
1225,5408;0,0624597
1226,5050;0,0629993
1227,4692;0,0635072
1228,4335;0,0639833
1229,3977;0,0644259
1230,3619;0,0648319
1231,3262;0,0651975
1232,2904;0,0655189
1233,2546;0,0657937
1234,2189;0,066021
1235,1831;0,0662037
1236,1473;0,0663484
1237,1116;0,0664643
1238,0758;0,0665597
1239,0400;0,066638
1240,0043;0,0666962
1240,9685;0,0667263
1241,9327;0,066719
1242,8970;0,0666675
1243,8612;0,0665681
1244,8254;0,0664193
1245,7897;0,0662206
1246,7539;0,0659728
1247,7181;0,0656807
1248,6824;0,0653548
1249,6466;0,0650091
1250,6108;0,0646569
1251,5751;0,0643055
1252,5393;0,063955
1253,5035;0,0636014
1254,4678;0,0632406
1255,4320;0,0628721
1256,3962;0,0624975
1257,3605;0,062117
1258,3247;0,061727
1259,2889;0,0613198
1260,2532;0,0608869
1261,2174;0,0604223
1262,1816;0,0599242
1263,1459;0,059394
1264,1101;0,0588346
1265,0743;0,0582482
1266,0386;0,0576361
1267,0028;0,0569991
1267,9670;0,0563381
1268,9313;0,0556551
1269,8955;0,0549533
1270,8597;0,0542374
1271,8240;0,0535128
1272,7882;0,0527849
1273,7524;0,0520599
1274,7167;0,0513455
1275,6809;0,0506511
1276,6451;0,0499862
1277,6094;0,0493562
1278,5736;0,0487597
1279,5378;0,0481885
1280,5021;0,0476319
1281,4663;0,047083
1282,4305;0,0465424
1283,3948;0,0460178
1284,3590;0,0455199
1285,3232;0,0450588
1286,2875;0,0446435
1287,2517;0,0442821
1288,2159;0,0439822
1289,1802;0,0437484
1290,1444;0,0435798
1291,1086;0,0434697
1292,0729;0,0434096
1293,0371;0,0433948
1294,0013;0,0434272
1294,9656;0,0435143
1295,9298;0,0436638
1296,8940;0,0438789
1297,8583;0,0441568
1298,8225;0,0444907
1299,7867;0,0448736
1300,7510;0,0452992
1301,7152;0,0457621
1302,6794;0,0462574
1303,6437;0,0467814
1304,6079;0,0473327
1305,5721;0,0479115
1306,5364;0,0485168
1307,5006;0,0491429
1308,4648;0,0497782
1309,4291;0,0504082
1310,3933;0,0510194
1311,3575;0,0516025
1312,3218;0,052151
1313,2860;0,0526571
1314,2502;0,0531073
1315,2145;0,0534805
1316,1787;0,0537523
1317,1429;0,0539025
1318,1072;0,0539257
1319,0714;0,0538382
1320,0356;0,0536738
1320,9999;0,0534716
1321,9641;0,0532621
1322,9283;0,0530609
1323,8926;0,0528726
1324,8568;0,0526977
1325,8210;0,0525377
1326,7853;0,0523953
1327,7495;0,0522719
1328,7137;0,0521631
1329,6780;0,0520578
1330,6422;0,0519396
1331,6064;0,0517911
1332,5707;0,0515985
1333,5349;0,0513533
1334,4991;0,05105
1335,4634;0,0506825
1336,4276;0,0502443
1337,3918;0,0497373
1338,3561;0,0491847
1339,3203;0,0486339
1340,2845;0,0481379
1341,2488;0,0477266
1342,2130;0,0473964
1343,1772;0,0471247
1344,1415;0,0468906
1345,1057;0,0466874
1346,0699;0,0465242
1347,0342;0,0464196
1347,9984;0,0463911
1348,9626;0,0464456
1349,9269;0,046577
1350,8911;0,0467701
1351,8553;0,047009
1352,8196;0,0472843
1353,7838;0,0475957
1354,7480;0,0479482
1355,7123;0,048344
