TITLE;
DATA TYPE;INFRARED SPECTRUM
ORIGIN;JASCO
OWNER;
DATE;25/02/25
TIME;16:40:10
SPECTROMETER/DATA SYSTEM;
LOCALE;9226
RESOLUTION;
DELTAX;0,964233
XUNITS;1/CM
YUNITS;ABSORBANCE
FIRSTX;  399,1927
LASTX; 4000,6047
NPOINTS;    3736
FIRSTY;     0,15733
MAXY;     0,22251
MINY;     0,01269
XYDATA
399,1927;0,157326
400,1569;0,157237
401,1211;0,156429
402,0854;0,155441
403,0496;0,154551
404,0138;0,153806
404,9781;0,153163
405,9423;0,152611
406,9065;0,152235
407,8708;0,152166
408,8350;0,15249
409,7992;0,153175
410,7635;0,15406
411,7277;0,154927
412,6919;0,155606
413,6562;0,156051
414,6204;0,15635
415,5846;0,156697
416,5489;0,157349
417,5131;0,158529
418,4773;0,16016
419,4416;0,161686
420,4058;0,162472
421,3700;0,162383
422,3343;0,161738
423,2985;0,160983
424,2627;0,160491
425,2270;0,160466
426,1912;0,16087
427,1554;0,161454
428,1197;0,161897
429,0839;0,162004
430,0481;0,161802
431,0124;0,161519
431,9766;0,161451
432,9408;0,161792
433,9051;0,162524
434,8693;0,163437
435,8335;0,164247
436,7978;0,164755
437,7620;0,164913
438,7262;0,164792
439,6905;0,164487
440,6547;0,164066
441,6189;0,163582
442,5832;0,163113
443,5474;0,162761
444,5116;0,162599
445,4759;0,1626
446,4401;0,162643
447,4043;0,162581
448,3686;0,162327
449,3328;0,161887
450,2970;0,161345
451,2613;0,160808
452,2255;0,160341
453,1897;0,159957
454,1540;0,159651
455,1182;0,15946
456,0824;0,159468
457,0467;0,15975
458,0109;0,16026
458,9751;0,160785
459,9394;0,161061
460,9036;0,160948
461,8678;0,160489
462,8321;0,159848
463,7963;0,159208
464,7605;0,158685
465,7248;0,158293
466,6890;0,157979
467,6532;0,1577
468,6175;0,157496
469,5817;0,157464
470,5459;0,157674
471,5102;0,158064
472,4744;0,158422
473,4386;0,158514
474,4029;0,158273
475,3671;0,157848
476,3313;0,157491
477,2956;0,157405
478,2598;0,157651
479,2240;0,158157
480,1883;0,158786
481,1525;0,159427
482,1167;0,160032
483,0810;0,160592
484,0452;0,161081
485,0094;0,161442
485,9737;0,161634
486,9379;0,161685
487,9021;0,161703
488,8664;0,16182
489,8306;0,162119
490,7948;0,162581
491,7591;0,163085
492,7233;0,16348
493,6875;0,163676
494,6518;0,163697
495,6160;0,163654
496,5802;0,163672
497,5445;0,163817
498,5087;0,164076
499,4729;0,164379
500,4372;0,164655
501,4014;0,164886
502,3656;0,165127
503,3299;0,16547
504,2941;0,165973
505,2583;0,166602
506,2226;0,167248
507,1868;0,167782
508,1510;0,168138
509,1153;0,168349
510,0795;0,168538
511,0437;0,168834
512,0080;0,169305
512,9722;0,169935
513,9365;0,170654
514,9007;0,171386
515,8649;0,172077
516,8292;0,1727
517,7934;0,173229
518,7576;0,173622
519,7219;0,173842
520,6861;0,173886
521,6503;0,173797
522,6146;0,173651
523,5788;0,173531
524,5430;0,173504
525,5073;0,173594
526,4715;0,173773
527,4357;0,173967
528,4000;0,174097
529,3642;0,174099
530,3284;0,173945
531,2927;0,173642
532,2569;0,173229
533,2211;0,172764
534,1854;0,17231
535,1496;0,171911
536,1138;0,171582
537,0781;0,171314
538,0423;0,171094
539,0065;0,17092
539,9708;0,170804
540,9350;0,170765
541,8992;0,170814
542,8635;0,170946
543,8277;0,171148
544,7919;0,171407
545,7562;0,171723
546,7204;0,172101
547,6846;0,17254
548,6489;0,173014
549,6131;0,173477
550,5773;0,173884
551,5416;0,174225
552,5058;0,174539
553,4700;0,174894
554,4343;0,175347
555,3985;0,175895
556,3627;0,176454
557,3270;0,176881
558,2912;0,177026
559,2554;0,17679
560,2197;0,176161
561,1839;0,175219
562,1481;0,174107
563,1124;0,172979
564,0766;0,171951
565,0408;0,17107
566,0051;0,170316
566,9693;0,169638
567,9335;0,169001
568,8978;0,168414
569,8620;0,167925
570,8262;0,16758
571,7905;0,167383
572,7547;0,16728
573,7189;0,167186
574,6832;0,167031
575,6474;0,166796
576,6116;0,166529
577,5759;0,166315
578,5401;0,166222
579,5043;0,166264
580,4686;0,166397
581,4328;0,166535
582,3970;0,166602
583,3613;0,166562
584,3255;0,166437
585,2897;0,166286
586,2540;0,166173
587,2182;0,166134
588,1824;0,166167
589,1467;0,166241
590,1109;0,16631
591,0751;0,166336
592,0394;0,166295
593,0036;0,166177
593,9678;0,165977
594,9321;0,165696
595,8963;0,165339
596,8605;0,164922
597,8248;0,164468
598,7890;0,164007
599,7532;0,163563
600,7175;0,163151
601,6817;0,162776
602,6459;0,162439
603,6102;0,162134
604,5744;0,161852
605,5386;0,161577
606,5029;0,161288
607,4671;0,16096
608,4313;0,160578
609,3956;0,16014
610,3598;0,159671
611,3240;0,159214
612,2883;0,158822
613,2525;0,158529
614,2167;0,15832
615,1810;0,158119
616,1452;0,1578
617,1094;0,157236
618,0737;0,15636
619,0379;0,155202
620,0021;0,153861
620,9664;0,152457
621,9306;0,151074
622,8948;0,149758
623,8591;0,148528
624,8233;0,147383
625,7875;0,146361
626,7518;0,145467
627,7160;0,144688
628,6802;0,143997
629,6445;0,143364
630,6087;0,142763
631,5729;0,142187
632,5372;0,141635
633,5014;0,141115
634,4656;0,140634
635,4299;0,140196
636,3941;0,139806
637,3583;0,139459
638,3226;0,139143
639,2868;0,138832
640,2510;0,138499
641,2153;0,138129
642,1795;0,137731
643,1437;0,137338
644,1080;0,136994
645,0722;0,136734
646,0364;0,136561
647,0007;0,136444
647,9649;0,136338
648,9291;0,136201
649,8934;0,136014
650,8576;0,135792
651,8218;0,135566
652,7861;0,135377
653,7503;0,135255
654,7145;0,135227
655,6788;0,1353
656,6430;0,135464
657,6072;0,135679
658,5715;0,135877
659,5357;0,135972
660,4999;0,135882
661,4642;0,13557
662,4284;0,135054
663,3926;0,134388
664,3569;0,13365
665,3211;0,132967
666,2853;0,132527
667,2496;0,132434
668,2138;0,132434
669,1780;0,132051
670,1423;0,131229
671,1065;0,130208
672,0707;0,129083
673,0350;0,127828
673,9992;0,126437
674,9634;0,124964
675,9277;0,123492
676,8919;0,122084
677,8561;0,12076
678,8204;0,119512
679,7846;0,118336
680,7488;0,117246
681,7131;0,116263
682,6773;0,115393
683,6415;0,11462
684,6058;0,113918
685,5700;0,113264
686,5342;0,112646
687,4985;0,112062
688,4627;0,111524
689,4269;0,111044
690,3912;0,11063
691,3554;0,110277
692,3196;0,109958
693,2839;0,109629
694,2481;0,109256
695,2123;0,108824
696,1766;0,108349
697,1408;0,107865
698,1050;0,107405
699,0693;0,10699
700,0335;0,10662
700,9977;0,106282
701,9620;0,105951
702,9262;0,1056
703,8904;0,105196
704,8547;0,104723
705,8189;0,104186
706,7831;0,103614
707,7474;0,103049
708,7116;0,102527
709,6758;0,102062
710,6401;0,101636
711,6043;0,101208
712,5685;0,100742
713,5328;0,100225
714,4970;0,0996765
715,4612;0,0988431
716,4255;0,0984127
717,3897;0,098055
718,3539;0,0977162
719,3182;0,0973084
720,2824;0,0967536
721,2466;0,0960265
722,2109;0,0951659
723,1751;0,0942456
724,1393;0,0933354
725,1036;0,0924776
726,0678;0,0916879
727,0320;0,0909683
727,9963;0,0903188
728,9605;0,0897398
729,9247;0,0892267
730,8890;0,0887643
731,8532;0,0883271
732,8174;0,087888
733,7817;0,0874287
734,7459;0,0869479
735,7101;0,0864591
736,6744;0,0859815
737,6386;0,0855281
738,6028;0,0851
739,5671;0,0846892
740,5313;0,084287
741,4955;0,0838917
742,4598;0,0835072
743,4240;0,083135
744,3882;0,0827657
745,3525;0,082381
746,3167;0,081965
747,2809;0,0815177
748,2452;0,0810592
749,2094;0,0806187
750,1736;0,0802148
751,1379;0,0798411
752,1021;0,0794684
753,0663;0,079062
754,0306;0,0786043
754,9948;0,0781067
755,9590;0,0776043
756,9233;0,0771368
757,8875;0,0767284
758,8517;0,0763777
759,8160;0,076062
760,7802;0,0757522
761,7444;0,0754276
762,7087;0,0750849
763,6729;0,0747362
764,6371;0,0743986
765,6014;0,0740835
766,5656;0,0737903
767,5298;0,0735095
768,4941;0,0732305
769,4583;0,0729504
770,4225;0,0726757
771,3868;0,0724164
772,3510;0,0721775
773,3152;0,0719539
774,2795;0,0717332
775,2437;0,0715047
776,2079;0,0712673
777,1722;0,0710302
778,1364;0,0708054
779,1006;0,0705987
780,0649;0,0704039
781,0291;0,0702061
781,9933;0,0699904
782,9576;0,0697495
783,9218;0,0694868
784,8860;0,0692131
785,8503;0,068941
786,8145;0,0686811
787,7787;0,0684403
788,7430;0,0682222
789,7072;0,0680272
790,6714;0,0678533
791,6357;0,0676973
792,5999;0,0675565
793,5641;0,0674296
794,5284;0,0673149
795,4926;0,0672078
796,4568;0,0670987
797,4211;0,0669754
798,3853;0,0668286
799,3495;0,066658
800,3138;0,0664742
801,2780;0,0662952
802,2422;0,0661391
803,2065;0,0660181
804,1707;0,0659354
805,1349;0,0658858
806,0992;0,0658575
807,0634;0,065834
808,0276;0,0657969
808,9919;0,0657296
809,9561;0,0656226
810,9203;0,0654766
811,8846;0,0653014
812,8488;0,0651107
813,8130;0,0649153
814,7773;0,0647196
815,7415;0,0645233
816,7057;0,0643257
817,6700;0,0641299
818,6342;0,0639423
819,5984;0,0637688
820,5627;0,0636117
821,5269;0,0634687
822,4911;0,0633377
823,4554;0,0632199
824,4196;0,0631218
825,3839;0,0630499
826,3481;0,063005
827,3123;0,0629772
828,2766;0,062949
829,2408;0,0629025
830,2050;0,0628277
831,1693;0,0627249
832,1335;0,0626009
833,0977;0,0624611
834,0620;0,0623045
835,0262;0,0621259
835,9904;0,0619229
836,9547;0,0617029
837,9189;0,0614825
838,8831;0,0612796
839,8474;0,0611027
840,8116;0,0609457
841,7758;0,0607926
842,7401;0,060629
843,7043;0,0604532
844,6685;0,060278
845,6328;0,0601242
846,5970;0,0600079
847,5612;0,0599323
848,5255;0,0598881
849,4897;0,05986
850,4539;0,0598361
851,4182;0,0598123
852,3824;0,0597911
853,3466;0,0597767
854,3109;0,0597704
855,2751;0,0597693
856,2393;0,0597688
857,2036;0,059767
858,1678;0,0597681
859,1320;0,0597819
860,0963;0,0598205
861,0605;0,0598917
862,0247;0,0599956
862,9890;0,0601238
863,9532;0,0602644
864,9174;0,0604085
865,8817;0,0605537
866,8459;0,0607034
867,8101;0,0608619
868,7744;0,0610297
869,7386;0,0612023
870,7028;0,0613724
871,6671;0,0615332
872,6313;0,0616791
873,5955;0,061805
874,5598;0,061906
875,5240;0,0619811
876,4882;0,0620381
877,4525;0,0620961
878,4167;0,0621813
879,3809;0,0623166
880,3452;0,0625129
881,3094;0,0627673
882,2736;0,0630707
883,2379;0,0634197
884,2021;0,0638237
885,1663;0,0643005
886,1306;0,0648653
887,0948;0,0655188
888,0590;0,066244
889,0233;0,0670145
889,9875;0,0678049
890,9517;0,0685968
891,9160;0,0693759
892,8802;0,0701217
893,8444;0,0708004
894,8087;0,0713674
895,7729;0,0717791
896,7371;0,0720063
897,7014;0,0720421
898,6656;0,0718981
899,6298;0,071594
900,5941;0,0711489
901,5583;0,0705795
902,5225;0,0699076
903,4868;0,0691675
904,4510;0,0684083
905,4152;0,0676863
906,3795;0,0670499
907,3437;0,0665267
908,3079;0,0661189
909,2722;0,065809
910,2364;0,0655731
911,2007;0,0653923
912,1649;0,0652586
913,1292;0,0651724
914,0934;0,065136
915,0576;0,0651496
916,0219;0,0652095
916,9861;0,0653107
917,9503;0,0654483
918,9146;0,0656167
919,8788;0,0658077
920,8430;0,06601
921,8073;0,0662124
922,7715;0,0664089
923,7357;0,066602
924,7000;0,0668009
925,6642;0,0670154
926,6284;0,0672487
927,5927;0,0674959
928,5569;0,0677474
929,5211;0,067996
930,4854;0,0682415
931,4496;0,0684908
932,4138;0,0687523
933,3781;0,0690315
934,3423;0,0693283
935,3065;0,0696402
936,2708;0,0699665
937,2350;0,0703114
938,1992;0,0706839
939,1635;0,0710947
940,1277;0,0715544
941,0919;0,072071
942,0562;0,0726504
943,0204;0,0732958
943,9846;0,0740059
944,9489;0,0747739
945,9131;0,0755878
946,8773;0,076434
947,8416;0,0773023
948,8058;0,078191
949,7700;0,0791079
950,7343;0,0800687
951,6985;0,0810914
952,6627;0,0821919
953,6270;0,0833806
954,5912;0,0846604
955,5554;0,0860251
956,5197;0,0874597
957,4839;0,088942
958,4481;0,0904479
959,4124;0,0919593
960,3766;0,0934692
961,3408;0,0949831
962,3051;0,0965123
963,2693;0,098065
964,2335;0,099641
965,1978;0,101233
966,1620;0,102834
967,1262;0,104447
968,0905;0,10609
969,0547;0,10779
970,0189;0,109576
970,9832;0,111474
971,9474;0,113505
972,9116;0,115688
973,8759;0,118043
974,8401;0,120591
975,8043;0,123344
976,7686;0,126308
977,7328;0,12947
978,6970;0,132797
979,6613;0,136236
980,6255;0,139707
981,5897;0,143113
982,5540;0,146339
983,5182;0,14928
984,4824;0,151855
985,4467;0,154031
986,4109;0,155824
987,3751;0,157293
988,3394;0,158519
989,3036;0,159575
990,2678;0,160514
991,2321;0,161364
992,1963;0,162132
993,1605;0,162829
994,1248;0,163477
995,0890;0,164117
996,0532;0,164796
997,0175;0,165554
997,9817;0,166402
998,9459;0,167324
999,9102;0,168285
1000,8744;0,169249
1001,8386;0,170198
1002,8029;0,171139
1003,7671;0,172103
1004,7313;0,173127
1005,6956;0,174254
1006,6598;0,175521
1007,6240;0,176962
1008,5883;0,178605
1009,5525;0,180462
1010,5167;0,182525
1011,4810;0,184761
1012,4452;0,187119
1013,4094;0,189542
1014,3737;0,191983
1015,3379;0,194404
1016,3021;0,196779
1017,2664;0,199083
1018,2306;0,201295
1019,1948;0,203398
1020,1591;0,205391
1021,1233;0,207292
1022,0875;0,209132
1023,0518;0,210943
1024,0160;0,212744
1024,9802;0,21453
1025,9445;0,216274
1026,9087;0,217927
1027,8729;0,21943
1028,8372;0,220714
1029,8014;0,221704
1030,7656;0,222325
1031,7299;0,22251
1032,6941;0,222206
1033,6583;0,221391
1034,6226;0,220082
1035,5868;0,21835
1036,5510;0,216323
1037,5153;0,214176
1038,4795;0,212101
1039,4437;0,210273
1040,4080;0,208803
1041,3722;0,207725
1042,3364;0,206994
1043,3007;0,206518
1044,2649;0,20619
1045,2291;0,205922
1046,1934;0,205653
1047,1576;0,20534
1048,1218;0,204948
1049,0861;0,204434
1050,0503;0,203754
1051,0145;0,202866
1051,9788;0,201746
1052,9430;0,200393
1053,9072;0,198829
1054,8715;0,19708
1055,8357;0,195164
1056,7999;0,193067
1057,7642;0,190746
1058,7284;0,18814
1059,6926;0,185199
1060,6569;0,18192
1061,6211;0,178363
1062,5853;0,174647
1063,5496;0,170925
1064,5138;0,167341
1065,4780;0,163998
1066,4423;0,160941
1067,4065;0,158165
1068,3707;0,155636
1069,3350;0,153312
1070,2992;0,151158
1071,2634;0,14915
1072,2277;0,147257
1073,1919;0,145445
1074,1561;0,143665
1075,1204;0,141871
1076,0846;0,14003
1077,0488;0,138137
1078,0131;0,13622
1078,9773;0,134335
1079,9415;0,132551
1080,9058;0,130934
1081,8700;0,129527
1082,8342;0,12834
1083,7985;0,127353
1084,7627;0,126526
1085,7269;0,125815
1086,6912;0,125187
1087,6554;0,124626
1088,6196;0,124135
1089,5839;0,123726
1090,5481;0,123408
1091,5123;0,123185
1092,4766;0,123052
1093,4408;0,122997
1094,4050;0,123009
1095,3693;0,123077
1096,3335;0,123197
1097,2977;0,123367
1098,2620;0,12359
1099,2262;0,123865
1100,1904;0,124182
1101,1547;0,12452
1102,1189;0,124845
1103,0831;0,125116
1104,0474;0,125292
1105,0116;0,125341
1105,9758;0,125247
1106,9401;0,125007
1107,9043;0,124626
1108,8685;0,124103
1109,8328;0,123426
1110,7970;0,12257
1111,7612;0,121512
1112,7255;0,120243
1113,6897;0,118788
1114,6539;0,117211
1115,6182;0,115603
1116,5824;0,114058
1117,5466;0,112642
1118,5109;0,111378
1119,4751;0,110237
1120,4393;0,109154
1121,4036;0,108047
1122,3678;0,106839
1123,3320;0,105472
1124,2963;0,103917
1125,2605;0,102166
1126,2247;0,10024
1127,1890;0,0981734
1128,1532;0,0960149
1129,1174;0,0938164
1130,0817;0,091627
1131,0459;0,0894884
1132,0101;0,0874343
1132,9744;0,0854926
1133,9386;0,0836891
1134,9028;0,082049
1135,8671;0,0805955
1136,8313;0,0793483
1137,7955;0,0783206
1138,7598;0,0775179
1139,7240;0,076937
1140,6882;0,0765653
1141,6525;0,0763809
1142,6167;0,0763539
1143,5809;0,0764513
1144,5452;0,0766436
1145,5094;0,0769095
1146,4736;0,0772386
1147,4379;0,0776291
1148,4021;0,0780824
1149,3663;0,078598
1150,3306;0,0791696
1151,2948;0,0797847
1152,2590;0,0804249
1153,2233;0,0810667
1154,1875;0,0816823
1155,1517;0,0822381
1156,1160;0,0826948
1157,0802;0,083006
1158,0444;0,0831185
1159,0087;0,0829738
1159,9729;0,0825124
1160,9371;0,0816814
1161,9014;0,0804445
1162,8656;0,0787932
1163,8298;0,0767534
1164,7941;0,074387
1165,7583;0,0717862
1166,7225;0,0690616
1167,6868;0,0663283
1168,6510;0,0636895
1169,6152;0,0612237
1170,5795;0,0589776
1171,5437;0,0569662
1172,5079;0,0551813
1173,4722;0,0536023
1174,4364;0,0522074
1175,4006;0,0509796
1176,3649;0,0499078
1177,3291;0,0489833
1178,2933;0,0481966
1179,2576;0,0475355
1180,2218;0,0469853
1181,1860;0,0465303
1182,1503;0,0461564
1183,1145;0,0458523
1184,0787;0,045612
1185,0430;0,0454346
1186,0072;0,0453246
1186,9714;0,0452886
1187,9357;0,0453329
1188,8999;0,0454605
1189,8641;0,0456709
1190,8284;0,0459606
1191,7926;0,0463248
1192,7568;0,0467578
1193,7211;0,0472527
1194,6853;0,0478009
1195,6495;0,0483915
1196,6138;0,049012
1197,5780;0,0496499
1198,5422;0,0502933
1199,5065;0,050812
1200,4707;0,0514536
1201,4349;0,0520772
1202,3992;0,0526763
1203,3634;0,0532445
1204,3276;0,0537763
1205,2919;0,0542699
1206,2561;0,0547295
1207,2203;0,0551677
1208,1846;0,0556043
1209,1488;0,0560631
1210,1130;0,0565664
1211,0773;0,0571297
1212,0415;0,0577602
1213,0057;0,0584568
1213,9700;0,0592123
1214,9342;0,0600147
1215,8984;0,060848
1216,8627;0,0616923
1217,8269;0,0625268
1218,7911;0,0633362
1219,7554;0,0641131
1220,7196;0,0648584
1221,6838;0,0655761
1222,6481;0,0662671
1223,6123;0,0669268
1224,5765;0,0675473
1225,5408;0,0681236
1226,5050;0,0686581
1227,4692;0,0691599
1228,4335;0,0696388
1229,3977;0,0700984
1230,3619;0,0705331
1231,3262;0,0709318
1232,2904;0,0712846
1233,2546;0,0715891
1234,2189;0,0718511
1235,1831;0,0720806
1236,1473;0,0722869
1237,1116;0,0724735
1238,0758;0,0726383
1239,0400;0,0727752
1240,0043;0,0728767
1240,9685;0,0729363
1241,9327;0,0729496
1242,8970;0,0729142
1243,8612;0,0728299
1244,8254;0,0726981
1245,7897;0,0725209
1246,7539;0,0723006
1247,7181;0,07204
1248,6824;0,0717425
1249,6466;0,0714139
1250,6108;0,0710615
1251,5751;0,0706947
1252,5393;0,0703228
1253,5035;0,0699537
1254,4678;0,0695915
1255,4320;0,069235
1256,3962;0,0688771
1257,3605;0,0685064
1258,3247;0,0681105
1259,2889;0,0676802
1260,2532;0,0672119
1261,2174;0,066708
1262,1816;0,0661736
1263,1459;0,0656145
1264,1101;0,065035
1265,0743;0,0644378
1266,0386;0,0638248
1267,0028;0,0631956
1267,9670;0,0625475
1268,9313;0,061876
1269,8955;0,0611772
1270,8597;0,0604517
1271,8240;0,0597069
1272,7882;0,0589569
1273,7524;0,05822
1274,7167;0,0575139
1275,6809;0,0568527
1276,6451;0,0562429
1277,6094;0,0556816
1278,5736;0,0551562
1279,5378;0,0546485
1280,5021;0,0541415
1281,4663;0,0536267
1282,4305;0,0531066
1283,3948;0,0525929
1284,3590;0,0520995
1285,3232;0,051638
1286,2875;0,0512151
1287,2517;0,0508347
1288,2159;0,0505003
1289,1802;0,050216
1290,1444;0,0499857
1291,1086;0,0498116
1292,0729;0,0496939
1293,0371;0,0496322
1294,0013;0,0496273
1294,9656;0,049682
1295,9298;0,0497994
1296,8940;0,0499813
1297,8583;0,0502269
1298,8225;0,0505321
1299,7867;0,050891
1300,7510;0,051297
1301,7152;0,0517461
1302,6794;0,0522364
1303,6437;0,0527678
1304,6079;0,053341
1305,5721;0,0539541
1306,5364;0,0545999
1307,5006;0,0552676
1308,4648;0,0559446
1309,4291;0,0566195
1310,3933;0,0572816
1311,3575;0,0579185
1312,3218;0,0585147
1313,2860;0,0590518
1314,2502;0,0595107
1315,2145;0,0598723
1316,1787;0,0601172
1317,1429;0,0602266
1318,1072;0,0601889
1319,0714;0,0600101
1320,0356;0,0597193
1320,9999;0,059363
1321,9641;0,0589897
1322,9283;0,0586366
1323,8926;0,0583254
1324,8568;0,0580652
1325,8210;0,0578567
1326,7853;0,057695
1327,7495;0,0575694
1328,7137;0,0574642
1329,6780;0,0573597
1330,6422;0,0572375
1331,6064;0,0570873
1332,5707;0,0569104
1333,5349;0,0567186
1334,4991;0,0565242
1335,4634;0,0563274
1336,4276;0,0561056
1337,3918;0,0558125
1338,3561;0,055398
1339,3203;0,0548468
1340,2845;0,0542063
1341,2488;0,0535635
1342,2130;0,0529922
1343,1772;0,0525242
1344,1415;0,0521592
1345,1057;0,0518867
1346,0699;0,0516995
1347,0342;0,0515964
1347,9984;0,0515786
1348,9626;0,051646
1349,9269;0,0517939
1350,8911;0,0520113
1351,8553;0,0522825
1352,8196;0,0525908
1353,7838;0,052924
1354,7480;0,0532789
1355,7123;0,053662
1356,6765;0,0540847
1357,6407;0,0545552
1358,6050;0,0550742
