TITLE;
DATA TYPE;INFRARED SPECTRUM
ORIGIN;JASCO
OWNER;
DATE;25/02/25
TIME;16:48:37
SPECTROMETER/DATA SYSTEM;
LOCALE;9226
RESOLUTION;
DELTAX;0,964233
XUNITS;1/CM
YUNITS;ABSORBANCE
FIRSTX;  399,1927
LASTX; 4000,6047
NPOINTS;    3736
FIRSTY;     0,17980
MAXY;     0,22397
MINY;     0,01140
XYDATA
399,1927;0,179796
400,1569;0,177634
401,1211;0,175092
402,0854;0,173034
403,0496;0,171654
404,0138;0,170699
404,9781;0,169771
405,9423;0,16864
406,9065;0,167435
407,8708;0,166587
408,8350;0,166536
409,7992;0,167412
410,7635;0,168909
411,7277;0,170444
412,6919;0,171523
413,6562;0,17204
414,6204;0,172291
415,5846;0,172781
416,5489;0,173983
417,5131;0,176029
418,4773;0,178339
419,4416;0,179814
420,4058;0,179903
421,3700;0,179102
422,3343;0,178251
423,2985;0,177866
424,2627;0,178015
425,2270;0,178412
426,1912;0,178623
427,1554;0,17834
428,1197;0,17757
429,0839;0,176623
430,0481;0,175944
431,0124;0,175894
431,9766;0,176588
432,9408;0,177839
433,9051;0,179232
434,8693;0,180298
435,8335;0,180695
436,7978;0,180345
437,7620;0,179435
438,7262;0,178296
439,6905;0,177259
440,6547;0,176561
441,6189;0,176306
442,5832;0,176439
443,5474;0,176757
444,5116;0,17698
445,4759;0,176875
446,4401;0,176364
447,4043;0,175537
448,3686;0,174606
449,3328;0,173813
450,2970;0,17333
451,2613;0,173177
452,2255;0,173213
453,1897;0,173224
454,1540;0,173048
455,1182;0,172665
456,0824;0,172217
457,0467;0,171925
458,0109;0,171959
458,9751;0,172306
459,9394;0,172801
460,9036;0,173255
461,8678;0,173556
462,8321;0,173658
463,7963;0,173543
464,7605;0,173209
465,7248;0,172696
466,6890;0,172108
467,6532;0,171594
468,6175;0,171282
469,5817;0,171223
470,5459;0,171364
471,5102;0,171569
472,4744;0,171694
473,4386;0,171677
474,4029;0,171563
475,3671;0,171444
476,3313;0,171386
477,2956;0,171402
478,2598;0,171474
479,2240;0,171588
480,1883;0,171759
481,1525;0,17203
482,1167;0,172439
483,0810;0,172975
484,0452;0,173566
485,0094;0,174096
485,9737;0,174472
486,9379;0,174675
487,9021;0,174762
488,8664;0,174825
489,8306;0,174933
490,7948;0,175096
491,7591;0,175257
492,7233;0,175327
493,6875;0,175252
494,6518;0,175055
495,6160;0,174827
496,5802;0,17467
497,5445;0,174644
498,5087;0,174738
499,4729;0,174894
500,4372;0,175053
501,4014;0,175203
502,3656;0,17539
503,3299;0,175671
504,2941;0,176053
505,2583;0,176476
506,2226;0,176849
507,1868;0,177115
508,1510;0,177296
509,1153;0,177479
510,0795;0,17775
511,0437;0,178137
512,0080;0,178592
512,9722;0,179039
513,9365;0,179434
514,9007;0,179797
515,8649;0,18019
516,8292;0,180659
517,7934;0,181169
518,7576;0,181617
519,7219;0,181896
520,6861;0,18198
521,6503;0,181924
522,6146;0,181823
523,5788;0,181745
524,5430;0,181707
525,5073;0,18167
526,4715;0,181582
527,4357;0,181418
528,4000;0,181198
529,3642;0,180959
530,3284;0,180724
531,2927;0,180488
532,2569;0,180215
533,2211;0,17987
534,1854;0,179442
535,1496;0,178964
536,1138;0,1785
537,0781;0,178124
538,0423;0,177886
539,0065;0,177797
539,9708;0,177828
540,9350;0,177927
541,8992;0,178047
542,8635;0,178158
543,8277;0,178255
544,7919;0,178355
545,7562;0,17849
546,7204;0,178696
547,6846;0,179006
548,6489;0,179426
549,6131;0,179931
550,5773;0,180472
551,5416;0,180987
552,5058;0,181437
553,4700;0,181811
554,4343;0,182118
555,3985;0,18236
556,3627;0,18251
557,3270;0,182512
558,2912;0,182302
559,2554;0,181841
560,2197;0,181136
561,1839;0,180241
562,1481;0,179237
563,1124;0,178209
564,0766;0,177225
565,0408;0,176322
566,0051;0,17551
566,9693;0,174779
567,9335;0,174111
568,8978;0,173495
569,8620;0,172931
570,8262;0,172434
571,7905;0,17202
572,7547;0,171705
573,7189;0,171493
574,6832;0,171375
575,6474;0,171326
576,6116;0,171314
577,5759;0,17131
578,5401;0,17129
579,5043;0,171242
580,4686;0,171168
581,4328;0,171071
582,3970;0,170959
583,3613;0,170836
584,3255;0,170706
585,2897;0,170579
586,2540;0,170467
587,2182;0,170388
588,1824;0,170358
589,1467;0,170382
590,1109;0,170448
591,0751;0,170523
592,0394;0,170559
593,0036;0,17051
593,9678;0,170351
594,9321;0,17009
595,8963;0,16976
596,8605;0,169409
597,8248;0,169081
598,7890;0,168796
599,7532;0,16855
600,7175;0,168312
601,6817;0,168041
602,6459;0,167709
603,6102;0,16731
604,5744;0,166858
605,5386;0,166378
606,5029;0,165887
607,4671;0,165374
608,4313;0,164816
609,3956;0,164187
610,3598;0,163497
611,3240;0,162802
612,2883;0,162184
613,2525;0,161713
614,2167;0,161394
615,1810;0,161142
616,1452;0,160796
617,1094;0,160188
618,0737;0,159233
619,0379;0,157973
620,0021;0,156553
620,9664;0,155134
621,9306;0,153835
622,8948;0,152706
623,8591;0,151745
624,8233;0,150881
625,7875;0,150144
626,7518;0,149498
627,7160;0,148916
628,6802;0,148376
629,6445;0,147869
630,6087;0,147391
631,5729;0,146944
632,5372;0,146516
633,5014;0,146091
634,4656;0,145648
635,4299;0,145185
636,3941;0,144723
637,3583;0,144299
638,3226;0,143948
639,2868;0,143678
640,2510;0,143466
641,2153;0,143272
642,1795;0,143065
643,1437;0,142837
644,1080;0,142606
645,0722;0,142397
646,0364;0,14222
647,0007;0,142058
647,9649;0,141873
648,9291;0,14163
649,8934;0,141319
650,8576;0,140965
651,8218;0,140626
652,7861;0,140368
653,7503;0,140245
654,7145;0,140275
655,6788;0,140431
656,6430;0,140651
657,6072;0,140869
658,5715;0,141033
659,5357;0,141102
660,4999;0,141026
661,4642;0,140726
662,4284;0,140105
663,3926;0,139078
664,3569;0,13765
665,3211;0,136037
666,2853;0,134755
667,2496;0,134381
668,2138;0,134867
669,1780;0,135372
670,1423;0,135372
671,1065;0,13492
672,0707;0,13406
673,0350;0,132782
673,9992;0,131181
674,9634;0,129467
675,9277;0,127851
676,8919;0,126443
677,8561;0,125223
678,8204;0,124109
679,7846;0,123036
680,7488;0,121992
681,7131;0,121001
682,6773;0,12008
683,6415;0,119236
684,6058;0,118461
685,5700;0,117752
686,5342;0,117108
687,4985;0,116526
688,4627;0,116006
689,4269;0,115527
690,3912;0,115076
691,3554;0,114649
692,3196;0,114245
693,2839;0,113858
694,2481;0,113473
695,2123;0,113069
696,1766;0,112627
697,1408;0,112141
698,1050;0,111633
699,0693;0,111139
700,0335;0,110698
700,9977;0,110325
701,9620;0,110004
702,9262;0,10969
703,8904;0,109319
704,8547;0,10886
705,8189;0,108314
706,7831;0,107715
707,7474;0,107111
708,7116;0,10654
709,6758;0,106023
710,6401;0,105548
711,6043;0,105084
712,5685;0,104588
713,5328;0,104034
714,4970;0,103431
715,4612;0,102091
716,4255;0,101675
717,3897;0,101382
718,3539;0,101137
719,3182;0,100798
720,2824;0,100228
721,2466;0,0993809
722,2109;0,098329
723,1751;0,0972177
724,1393;0,096181
725,1036;0,0952875
726,0678;0,0945375
727,0320;0,0938943
727,9963;0,0933205
728,9605;0,092794
729,9247;0,0923015
730,8890;0,0918244
731,8532;0,091336
732,8174;0,0908143
733,7817;0,0902584
734,7459;0,089693
735,7101;0,0891559
736,6744;0,0886765
737,6386;0,0882619
738,6028;0,0878975
739,5671;0,0875589
740,5313;0,0872254
741,4955;0,0868848
742,4598;0,0865303
743,4240;0,0861551
744,3882;0,0857502
745,3525;0,0853096
746,3167;0,0848364
747,2809;0,0843457
748,2452;0,0838599
749,2094;0,0833983
750,1736;0,0829669
751,1379;0,0825551
752,1021;0,0821414
753,0663;0,0817057
754,0306;0,0812406
754,9948;0,0807559
755,9590;0,0802729
756,9233;0,0798142
757,8875;0,0793941
758,8517;0,0790147
759,8160;0,0786699
760,7802;0,0783497
761,7444;0,0780454
762,7087;0,0777493
763,6729;0,077455
764,6371;0,0771578
765,6014;0,076857
766,5656;0,0765569
767,5298;0,0762648
768,4941;0,0759858
769,4583;0,0757181
770,4225;0,075453
771,3868;0,0751801
772,3510;0,0748942
773,3152;0,0745982
774,2795;0,0743009
775,2437;0,0740116
776,2079;0,0737349
777,1722;0,0734705
778,1364;0,0732156
779,1006;0,0729675
780,0649;0,0727239
781,0291;0,0724809
781,9933;0,0722323
782,9576;0,0719713
783,9218;0,0716947
784,8860;0,0714057
785,8503;0,0711139
786,8145;0,0708312
787,7787;0,0705669
788,7430;0,0703259
789,7072;0,0701088
790,6714;0,0699147
791,6357;0,0697424
792,5999;0,0695892
793,5641;0,0694492
794,5284;0,0693121
795,4926;0,0691672
796,4568;0,0690084
797,4211;0,0688386
798,3853;0,0686681
799,3495;0,0685082
800,3138;0,068364
801,2780;0,0682315
802,2422;0,0681019
803,2065;0,0679701
804,1707;0,0678392
805,1349;0,0677184
806,0992;0,0676142
807,0634;0,0675227
808,0276;0,0674298
808,9919;0,067319
809,9561;0,0671819
810,9203;0,0670223
811,8846;0,0668519
812,8488;0,0666804
813,8130;0,0665101
814,7773;0,0663375
815,7415;0,0661612
816,7057;0,0659877
817,6700;0,0658305
818,6342;0,0657016
819,5984;0,0656029
820,5627;0,0655236
821,5269;0,065446
822,4911;0,0653557
823,4554;0,0652496
824,4196;0,0651367
825,3839;0,0650314
826,3481;0,0649441
827,3123;0,0648746
828,2766;0,0648114
829,2408;0,0647375
830,2050;0,0646392
831,1693;0,064513
832,1335;0,0643651
833,0977;0,0642059
834,0620;0,0640414
835,0262;0,0638685
835,9904;0,0636772
836,9547;0,0634595
837,9189;0,0632173
838,8831;0,062964
839,8474;0,0627184
840,8116;0,0624946
841,7758;0,0622949
842,7401;0,0621104
843,7043;0,0619287
844,6685;0,0617419
845,6328;0,0615527
846,5970;0,0613729
847,5612;0,0612175
848,5255;0,0610973
849,4897;0,0610139
850,4539;0,0609582
851,4182;0,0609144
852,3824;0,0608673
853,3466;0,0608098
854,3109;0,0607455
855,2751;0,0606857
856,2393;0,0606411
857,2036;0,0606145
858,1678;0,0605995
859,1320;0,0605866
860,0963;0,0605716
861,0605;0,0605607
862,0247;0,0605684
862,9890;0,0606093
863,9532;0,0606914
864,9174;0,0608141
865,8817;0,0609716
866,8459;0,061157
867,8101;0,0613646
868,7744;0,0615875
869,7386;0,0618151
870,7028;0,0620339
871,6671;0,0622303
872,6313;0,0623954
873,5955;0,0625265
874,5598;0,0626275
875,5240;0,0627066
876,4882;0,062777
877,4525;0,062857
878,4167;0,0629688
879,3809;0,0631338
880,3452;0,0633658
881,3094;0,063667
882,2736;0,064031
883,2379;0,0644509
884,2021;0,0649283
885,1663;0,0654746
886,1306;0,0661045
887,0948;0,0668241
888,0590;0,0676228
889,0233;0,068474
889,9875;0,0693441
890,9517;0,0702025
891,9160;0,0710251
892,8802;0,0717908
893,8444;0,0724743
894,8087;0,0730429
895,7729;0,0734613
896,7371;0,0737011
897,7014;0,0737487
898,6656;0,0736071
899,6298;0,0732916
900,5941;0,072823
901,5583;0,0722257
902,5225;0,0715279
903,4868;0,0707657
904,4510;0,0699825
905,4152;0,0692259
906,3795;0,06854
907,3437;0,0679567
908,3079;0,0674909
909,2722;0,0671393
910,2364;0,0668847
911,2007;0,0667035
912,1649;0,0665737
913,1292;0,0664811
914,0934;0,0664208
915,0576;0,0663964
916,0219;0,066416
916,9861;0,0664876
917,9503;0,0666153
918,9146;0,0667956
919,8788;0,0670156
920,8430;0,067255
921,8073;0,067493
922,7715;0,0677166
923,7357;0,0679266
924,7000;0,0681363
925,6642;0,0683624
926,6284;0,068614
927,5927;0,0688867
928,5569;0,0691659
929,5211;0,0694375
930,4854;0,0696974
931,4496;0,0699544
932,4138;0,0702248
933,3781;0,0705235
934,3423;0,0708582
935,3065;0,0712299
936,2708;0,0716366
937,2350;0,072078
938,1992;0,0725563
939,1635;0,073076
940,1277;0,0736438
941,0919;0,0742689
942,0562;0,0749621
943,0204;0,0757328
943,9846;0,0765839
944,9489;0,0775083
945,9131;0,0784913
946,8773;0,0795177
947,8416;0,0805793
948,8058;0,0816793
949,7700;0,0828285
950,7343;0,0840387
951,6985;0,0853166
952,6627;0,086663
953,6270;0,0880757
954,5912;0,0895526
955,5554;0,0910916
956,5197;0,0926879
957,4839;0,0943313
958,4481;0,0960075
959,4124;0,0977025
960,3766;0,0994074
961,3408;0,101119
962,3051;0,102838
963,2693;0,104562
964,2335;0,106283
965,1978;0,107995
966,1620;0,1097
967,1262;0,111408
968,0905;0,113143
969,0547;0,114933
970,0189;0,116808
970,9832;0,118791
971,9474;0,120908
972,9116;0,123181
973,8759;0,125631
974,8401;0,128275
975,8043;0,131115
976,7686;0,134141
977,7328;0,137328
978,6970;0,140639
979,6613;0,144019
980,6255;0,147395
981,5897;0,150679
982,5540;0,153773
983,5182;0,156588
984,4824;0,159063
985,4467;0,161184
986,4109;0,162976
987,3751;0,164496
988,3394;0,165809
989,3036;0,16697
990,2678;0,168013
991,2321;0,168957
992,1963;0,169811
993,1605;0,170585
994,1248;0,171299
995,0890;0,171985
996,0532;0,172677
997,0175;0,173408
997,9817;0,174194
998,9459;0,175036
999,9102;0,175916
1000,8744;0,176816
1001,8386;0,177727
1002,8029;0,178663
1003,7671;0,179655
1004,7313;0,180749
1005,6956;0,181985
1006,6598;0,183397
1007,6240;0,185
1008,5883;0,186796
1009,5525;0,188773
1010,5167;0,190904
1011,4810;0,193151
1012,4452;0,195468
1013,4094;0,19781
1014,3737;0,200136
1015,3379;0,202414
1016,3021;0,204615
1017,2664;0,206713
1018,2306;0,208682
1019,1948;0,210501
1020,1591;0,212165
1021,1233;0,213688
1022,0875;0,2151
1023,0518;0,216438
1024,0160;0,217731
1024,9802;0,218989
1025,9445;0,2202
1026,9087;0,221331
1027,8729;0,222334
1028,8372;0,223152
1029,8014;0,223719
1030,7656;0,223971
1031,7299;0,223852
1032,6941;0,22332
1033,6583;0,222366
1034,6226;0,22102
1035,5868;0,219357
1036,5510;0,217495
1037,5153;0,215578
1038,4795;0,213751
1039,4437;0,212138
1040,4080;0,210814
1041,3722;0,209799
1042,3364;0,209063
1043,3007;0,20854
1044,2649;0,208153
1045,2291;0,207823
1046,1934;0,207479
1047,1576;0,207061
1048,1218;0,206521
1049,0861;0,20582
1050,0503;0,204936
1051,0145;0,203855
1051,9788;0,202574
1052,9430;0,201098
1053,9072;0,199433
1054,8715;0,197585
1055,8357;0,195561
1056,7999;0,193358
1057,7642;0,19096
1058,7284;0,188344
1059,6926;0,185489
1060,6569;0,1824
1061,6211;0,17912
1062,5853;0,175741
1063,5496;0,172381
1064,5138;0,169158
1065,4780;0,166165
1066,4423;0,163446
1067,4065;0,160998
1068,3707;0,158785
1069,3350;0,156757
1070,2992;0,154867
1071,2634;0,153075
1072,2277;0,151346
1073,1919;0,149642
1074,1561;0,147925
1075,1204;0,146156
1076,0846;0,144314
1077,0488;0,142405
1078,0131;0,140463
1078,9773;0,13855
1079,9415;0,136737
1080,9058;0,135085
1081,8700;0,133634
1082,8342;0,132392
1083,7985;0,131338
1084,7627;0,130436
1085,7269;0,129644
1086,6912;0,128933
1087,6554;0,128286
1088,6196;0,127708
1089,5839;0,127209
1090,5481;0,126804
1091,5123;0,126496
1092,4766;0,126278
1093,4408;0,126136
1094,4050;0,126049
1095,3693;0,126007
1096,3335;0,126008
1097,2977;0,126056
1098,2620;0,126156
1099,2262;0,126304
1100,1904;0,126479
1101,1547;0,126649
1102,1189;0,126777
1103,0831;0,126829
1104,0474;0,126784
1105,0116;0,126636
1105,9758;0,12639
1106,9401;0,126059
1107,9043;0,125649
1108,8685;0,125154
1109,8328;0,124549
1110,7970;0,123798
1111,7612;0,122864
1112,7255;0,12173
1113,6897;0,120421
1114,6539;0,118999
1115,6182;0,117555
1116,5824;0,116181
1117,5466;0,114941
1118,5109;0,113849
1119,4751;0,112874
1120,4393;0,111944
1121,4036;0,110973
1122,3678;0,109878
1123,3320;0,108597
1124,2963;0,107096
1125,2605;0,105375
1126,2247;0,103461
1127,1890;0,101403
1128,1532;0,0992573
1129,1174;0,0970773
1130,0817;0,0949026
1131,0459;0,0927588
1132,0101;0,090664
1132,9744;0,0886387
1133,9386;0,0867139
1134,9028;0,0849314
1135,8671;0,0833368
1136,8313;0,0819681
1137,7955;0,080848
1138,7598;0,0799814
1139,7240;0,0793593
1140,6882;0,0789633
1141,6525;0,0787693
1142,6167;0,078748
1143,5809;0,0788655
1144,5452;0,0790871
1145,5094;0,0793838
1146,4736;0,0797389
1147,4379;0,08015
1148,4021;0,0806246
1149,3663;0,0811703
1150,3306;0,0817846
1151,2948;0,0824499
1152,2590;0,0831343
1153,2233;0,0837979
1154,1875;0,0844
1155,1517;0,0849023
1156,1160;0,0852681
1157,0802;0,0854567
1158,0444;0,0854206
1159,0087;0,0851045
1159,9729;0,0844519
1160,9371;0,0834162
1161,9014;0,0819734
1162,8656;0,0801317
1163,8298;0,0779352
1164,7941;0,0754596
1165,7583;0,0728023
1166,7225;0,0700699
1167,6868;0,067365
1168,6510;0,0647752
1169,6152;0,0623654
1170,5795;0,0601743
1171,5437;0,0582158
1172,5079;0,056485
1173,4722;0,0549662
1174,4364;0,0536399
1175,4006;0,0524883
1176,3649;0,0514955
1177,3291;0,050647
1178,2933;0,0499274
1179,2576;0,0493198
1180,2218;0,0488075
1181,1860;0,0483759
1182,1503;0,048016
1183,1145;0,047725
1184,0787;0,0475057
1185,0430;0,0473636
1186,0072;0,0473033
1186,9714;0,0473265
1187,9357;0,0474313
1188,8999;0,0476138
1189,8641;0,0478709
1190,8284;0,0482013
1191,7926;0,0486052
1192,7568;0,0490829
1193,7211;0,0496328
1194,6853;0,0502501
1195,6495;0,050927
1196,6138;0,0516532
1197,5780;0,0524161
1198,5422;0,0532017
1199,5065;0,0538693
1200,4707;0,05467
1201,4349;0,055452
1202,3992;0,0562061
1203,3634;0,0569277
1204,3276;0,0576174
1205,2919;0,0582812
1206,2561;0,0589303
1207,2203;0,0595813
1208,1846;0,0602538
1209,1488;0,060968
1210,1130;0,0617408
1211,0773;0,0625823
1212,0415;0,0634942
1213,0057;0,0644706
1213,9700;0,0654995
1214,9342;0,0665652
1215,8984;0,06765
1216,8627;0,0687351
1217,8269;0,0698029
1218,7911;0,0708405
1219,7554;0,0718403
1220,7196;0,0727981
1221,6838;0,0737097
1222,6481;0,0745676
1223,6123;0,0753623
1224,5765;0,0760864
1225,5408;0,0767401
1226,5050;0,077333
1227,4692;0,0778797
1228,4335;0,0783928
1229,3977;0,0788755
1230,3619;0,0793213
1231,3262;0,0797184
1232,2904;0,0800574
1233,2546;0,0803368
1234,2189;0,0805626
1235,1831;0,0807446
1236,1473;0,0808917
1237,1116;0,0810081
1238,0758;0,0810938
1239,0400;0,0811454
1240,0043;0,081158
1240,9685;0,081125
1241,9327;0,0810389
1242,8970;0,0808931
1243,8612;0,0806831
1244,8254;0,0804098
1245,7897;0,0800795
1246,7539;0,0797036
1247,7181;0,0792957
1248,6824;0,0788679
1249,6466;0,0784277
1250,6108;0,0779771
1251,5751;0,0775145
1252,5393;0,0770383
1253,5035;0,0765504
1254,4678;0,0760559
1255,4320;0,0755603
1256,3962;0,0750644
1257,3605;0,0745616
1258,3247;0,0740401
1259,2889;0,0734871
1260,2532;0,0728948
1261,2174;0,0722625
1262,1816;0,0715946
1263,1459;0,0708977
1264,1101;0,0701775
1265,0743;0,0694385
1266,0386;0,0686838
1267,0028;0,0679139
1267,9670;0,0671253
1268,9313;0,0663102
1269,8955;0,0654606
1270,8597;0,0645739
1271,8240;0,0636587
1272,7882;0,0627352
1273,7524;0,0618301
1274,7167;0,0609693
1275,6809;0,0601694
1276,6451;0,0594337
1277,6094;0,0587513
1278,5736;0,0581018
1279,5378;0,0574629
1280,5021;0,0568197
1281,4663;0,0561714
1282,4305;0,0555309
1283,3948;0,0549179
1284,3590;0,0543495
1285,3232;0,0538333
1286,2875;0,053367
1287,2517;0,0529432
1288,2159;0,0525572
1289,1802;0,0522113
1290,1444;0,0519146
1291,1086;0,0516777
1292,0729;0,0515082
1293,0371;0,0514075
1294,0013;0,0513719
1294,9656;0,0513963
1295,9298;0,0514774
1296,8940;0,0516161
1297,8583;0,0518168
1298,8225;0,0520841
1299,7867;0,0524196
1300,7510;0,0528191
1301,7152;0,0532756
1302,6794;0,0537795
1303,6437;0,0543229
1304,6079;0,0549014
1305,5721;0,0555127
1306,5364;0,0561544
1307,5006;0,0568232
1308,4648;0,0575148
1309,4291;0,0582224
1310,3933;0,0589347
1311,3575;0,0596334
1312,3218;0,0602936
1313,2860;0,0608883
1314,2502;0,0613943
1315,2145;0,0617943
1316,1787;0,0620735
1317,1429;0,0622182
1318,1072;0,0622193
1319,0714;0,0620834
1320,0356;0,0618399
1320,9999;0,0615356
1321,9641;0,0612183
1322,9283;0,0609215
1323,8926;0,06066
1324,8568;0,0604344
1325,8210;0,0602393
1326,7853;0,0600689
1327,7495;0,059918
1328,7137;0,0597787
1329,6780;0,0596384
1330,6422;0,0594825
1331,6064;0,059301
1332,5707;0,0590946
1333,5349;0,0588761
1334,4991;0,05866
1335,4634;0,058448
1336,4276;0,0582162
1337,3918;0,057911
1338,3561;0,0574704
1339,3203;0,0568697
1340,2845;0,0561577
1341,2488;0,0554349
1342,2130;0,0547927
1343,1772;0,0542755
1344,1415;0,0538873
1345,1057;0,0536137
1346,0699;0,053439
1347,0342;0,0533523
1347,9984;0,0533491
1348,9626;0,0534294
1349,9269;0,0535936
1350,8911;0,0538378
1351,8553;0,0541511
1352,8196;0,054518
1353,7838;0,0549235
1354,7480;0,0553589
1355,7123;0,0558259
1356,6765;0,0563345
1357,6407;0,0568974
1358,6050;0,0575235
1359,5692;0,058208
