TITLE;
DATA TYPE;INFRARED SPECTRUM
ORIGIN;JASCO
OWNER;
DATE;25/02/25
TIME;16:18:19
SPECTROMETER/DATA SYSTEM;
LOCALE;9226
RESOLUTION;
DELTAX;0,964233
XUNITS;1/CM
YUNITS;ABSORBANCE
FIRSTX;  399,1927
LASTX; 4000,6047
NPOINTS;    3736
FIRSTY;     0,10406
MAXY;     0,12434
MINY;     0,00876
XYDATA
399,1927;0,104062
400,1569;0,103753
401,1211;0,102615
402,0854;0,101178
403,0496;0,0997554
404,0138;0,098451
404,9781;0,0972846
405,9423;0,0963049
406,9065;0,0956324
407,8708;0,0954075
408,8350;0,0956864
409,7992;0,0963663
410,7635;0,097199
411,7277;0,0979037
412,6919;0,0983194
413,6562;0,0984816
414,6204;0,0985784
415,5846;0,0988561
416,5489;0,0995335
417,5131;0,100678
418,4773;0,102016
419,4416;0,102967
420,4058;0,103135
421,3700;0,102635
422,3343;0,101836
423,2985;0,101067
424,2627;0,100546
425,2270;0,100391
426,1912;0,100614
427,1554;0,101139
428,1197;0,101836
429,0839;0,102574
430,0481;0,103242
431,0124;0,103757
431,9766;0,104069
432,9408;0,104179
433,9051;0,104146
434,8693;0,104079
435,8335;0,104092
436,7978;0,104241
437,7620;0,104506
438,7262;0,104803
439,6905;0,105042
440,6547;0,10517
441,6189;0,105184
442,5832;0,105121
443,5474;0,105025
444,5116;0,104924
445,4759;0,104835
446,4401;0,104781
447,4043;0,104798
448,3686;0,104927
449,3328;0,105178
450,2970;0,105509
451,2613;0,105827
452,2255;0,106028
453,1897;0,10604
454,1540;0,105852
455,1182;0,105512
456,0824;0,105125
457,0467;0,104821
458,0109;0,104718
458,9751;0,104856
459,9394;0,105182
460,9036;0,105593
461,8678;0,105996
462,8321;0,106321
463,7963;0,106511
464,7605;0,106518
465,7248;0,106313
466,6890;0,105918
467,6532;0,105415
468,6175;0,104937
469,5817;0,104626
470,5459;0,104576
471,5102;0,104774
472,4744;0,10508
473,4386;0,105298
474,4029;0,105294
475,3671;0,105072
476,3313;0,104741
477,2956;0,104441
478,2598;0,10427
479,2240;0,104266
480,1883;0,10441
481,1525;0,104663
482,1167;0,104984
483,0810;0,10533
484,0452;0,105646
485,0094;0,105858
485,9737;0,105901
486,9379;0,105761
487,9021;0,105493
488,8664;0,105202
489,8306;0,10501
490,7948;0,104997
491,7591;0,105159
492,7233;0,105408
493,6875;0,105611
494,6518;0,105664
495,6160;0,105533
496,5802;0,105248
497,5445;0,104872
498,5087;0,104471
499,4729;0,104105
500,4372;0,103842
501,4014;0,103752
502,3656;0,103892
503,3299;0,104263
504,2941;0,104791
505,2583;0,10535
506,2226;0,105811
507,1868;0,106093
508,1510;0,106183
509,1153;0,106133
510,0795;0,106023
511,0437;0,105926
512,0080;0,105884
512,9722;0,105922
513,9365;0,10606
514,9007;0,106314
515,8649;0,106682
516,8292;0,107113
517,7934;0,10751
518,7576;0,107767
519,7219;0,107837
520,6861;0,10775
521,6503;0,107587
522,6146;0,107423
523,5788;0,107299
524,5430;0,107211
525,5073;0,107134
526,4715;0,107047
527,4357;0,106951
528,4000;0,106861
529,3642;0,10679
530,3284;0,106733
531,2927;0,106673
532,2569;0,106594
533,2211;0,106487
534,1854;0,106351
535,1496;0,106189
536,1138;0,106003
537,0781;0,105796
538,0423;0,105584
539,0065;0,105401
539,9708;0,105286
540,9350;0,105262
541,8992;0,105319
542,8635;0,105412
543,8277;0,105484
544,7919;0,1055
545,7562;0,10547
546,7204;0,105457
547,6846;0,105537
548,6489;0,105758
549,6131;0,106102
550,5773;0,106497
551,5416;0,10685
552,5058;0,107088
553,4700;0,107193
554,4343;0,107188
555,3985;0,107116
556,3627;0,107005
557,3270;0,106862
558,2912;0,106672
559,2554;0,106412
560,2197;0,106065
561,1839;0,105621
562,1481;0,10508
563,1124;0,104456
564,0766;0,103783
565,0408;0,103104
566,0051;0,102465
566,9693;0,101896
567,9335;0,101405
568,8978;0,100985
569,8620;0,10063
570,8262;0,100336
571,7905;0,100107
572,7547;0,0999364
573,7189;0,0998048
574,6832;0,0996824
575,6474;0,0995459
576,6116;0,0993943
577,5759;0,0992514
578,5401;0,0991487
579,5043;0,0991025
580,4686;0,0991004
581,4328;0,0991069
582,3970;0,099084
583,3613;0,0990149
584,3255;0,0989142
585,2897;0,0988207
586,2540;0,0987765
587,2182;0,0988048
588,1824;0,0988991
589,1467;0,0990255
590,1109;0,099136
591,0751;0,0991888
592,0394;0,0991667
593,0036;0,0990849
593,9678;0,0989797
594,9321;0,0988852
595,8963;0,0988139
596,8605;0,0987512
597,8248;0,0986663
598,7890;0,0985308
599,7532;0,0983354
600,7175;0,0980931
601,6817;0,0978302
602,6459;0,0975725
603,6102;0,097336
604,5744;0,0971255
605,5386;0,0969357
606,5029;0,0967506
607,4671;0,0965443
608,4313;0,0962882
609,3956;0,095968
610,3598;0,0956008
611,3240;0,0952381
612,2883;0,094945
613,2525;0,0947642
614,2167;0,0946832
615,1810;0,0946256
616,1452;0,0944764
617,1094;0,0941346
618,0737;0,0935673
619,0379;0,0928262
620,0021;0,0920137
620,9664;0,0912291
621,9306;0,0905321
622,8948;0,0899379
623,8591;0,0894303
624,8233;0,0889577
625,7875;0,0885418
626,7518;0,0881715
627,7160;0,087849
628,6802;0,0875786
629,6445;0,0873604
630,6087;0,0871798
631,5729;0,0870088
632,5372;0,0868145
633,5014;0,0865745
634,4656;0,0862919
635,4299;0,0859969
636,3941;0,0857338
637,3583;0,0855397
638,3226;0,0854267
639,2868;0,0853766
640,2510;0,0853488
641,2153;0,0852983
642,1795;0,0851974
643,1437;0,0850488
644,1080;0,0848859
645,0722;0,0847543
646,0364;0,0846869
647,0007;0,0846834
647,9649;0,0847077
648,9291;0,0847076
649,8934;0,0846469
650,8576;0,0845275
651,8218;0,0843857
652,7861;0,0842683
653,7503;0,0842068
654,7145;0,0842042
655,6788;0,0842398
656,6430;0,0842857
657,6072;0,0843216
658,5715;0,0843354
659,5357;0,0843095
660,4999;0,084208
661,4642;0,0839785
662,4284;0,0835654
663,3926;0,0829292
664,3569;0,0820875
665,3211;0,0811925
666,2853;0,0805751
667,2496;0,0805751
668,2138;0,0810772
669,1780;0,0814819
670,1423;0,0815001
671,1065;0,0812498
672,0707;0,0807994
673,0350;0,0801447
673,9992;0,0793358
674,9634;0,0784861
675,9277;0,0777039
676,8919;0,0770302
677,8561;0,0764343
678,8204;0,0758587
679,7846;0,0752685
680,7488;0,0746627
681,7131;0,0740632
682,6773;0,0734911
683,6415;0,0729584
684,6058;0,0724697
685,5700;0,0720271
686,5342;0,0716295
687,4985;0,0712702
688,4627;0,0709406
689,4269;0,0706259
690,3912;0,0703204
691,3554;0,0700286
692,3196;0,0697566
693,2839;0,0695029
694,2481;0,0692535
695,2123;0,068988
696,1766;0,0686914
697,1408;0,0683646
698,1050;0,0680274
699,0693;0,0677102
700,0335;0,0674366
700,9977;0,0672084
701,9620;0,0670002
702,9262;0,0667702
703,8904;0,0664732
704,8547;0,0661011
705,8189;0,0656798
706,7831;0,0652579
707,7474;0,0648799
708,7116;0,0645642
709,6758;0,0642957
710,6401;0,0640391
711,6043;0,0637616
712,5685;0,0634521
713,5328;0,0631269
714,4970;0,062819
715,4612;0,0620758
716,4255;0,0619713
717,3897;0,0619378
718,3539;0,0618987
719,3182;0,0617558
720,2824;0,0614337
721,2466;0,0609185
722,2109;0,0602641
723,1751;0,0595604
724,1393;0,0588903
725,1036;0,0583041
726,0678;0,0578155
727,0320;0,0574119
727,9963;0,0570675
728,9605;0,0567551
729,9247;0,0564531
730,8890;0,0561483
731,8532;0,0558367
732,8174;0,0555218
733,7817;0,0552122
734,7459;0,0549176
735,7101;0,054646
736,6744;0,0544012
737,6386;0,0541817
738,6028;0,0539805
739,5671;0,0537857
740,5313;0,0535829
741,4955;0,0533591
742,4598;0,0531065
743,4240;0,0528261
744,3882;0,0525267
745,3525;0,0522227
746,3167;0,0519291
747,2809;0,051657
748,2452;0,0514103
749,2094;0,0511842
750,1736;0,050966
751,1379;0,0507398
752,1021;0,0504915
753,0663;0,050215
754,0306;0,049914
754,9948;0,0496011
755,9590;0,0492925
756,9233;0,0490031
757,8875;0,048742
758,8517;0,0485116
759,8160;0,0483068
760,7802;0,0481177
761,7444;0,0479318
762,7087;0,0477392
763,6729;0,0475352
764,6371;0,0473227
765,6014;0,0471093
766,5656;0,046903
767,5298;0,046708
768,4941;0,0465245
769,4583;0,046351
770,4225;0,0461876
771,3868;0,0460359
772,3510;0,0458961
773,3152;0,0457635
774,2795;0,0456297
775,2437;0,0454881
776,2079;0,0453402
777,1722;0,0451966
778,1364;0,0450698
779,1006;0,0449622
780,0649;0,04486
781,0291;0,0447381
781,9933;0,0445748
782,9576;0,0443673
783,9218;0,0441365
784,8860;0,0439169
785,8503;0,0437368
786,8145;0,0436033
787,7787;0,043499
788,7430;0,043395
789,7072;0,0432687
790,6714;0,0431158
791,6357;0,0429497
792,5999;0,0427911
793,5641;0,0426546
794,5284;0,0425424
795,4926;0,0424474
796,4568;0,0423605
797,4211;0,0422776
798,3853;0,0422002
799,3495;0,0421307
800,3138;0,0420667
801,2780;0,0419991
802,2422;0,0419166
803,2065;0,041813
804,1707;0,0416926
805,1349;0,04157
806,0992;0,041463
807,0634;0,0413826
808,0276;0,041326
808,9919;0,0412782
809,9561;0,0412192
810,9203;0,0411351
811,8846;0,0410249
812,8488;0,0408996
813,8130;0,0407745
814,7773;0,0406601
815,7415;0,0405572
816,7057;0,0404594
817,6700;0,0403595
818,6342;0,0402558
819,5984;0,040153
820,5627;0,0400584
821,5269;0,0399757
822,4911;0,0399031
823,4554;0,0398357
824,4196;0,03977
825,3839;0,0397065
826,3481;0,0396475
827,3123;0,0395931
828,2766;0,0395387
829,2408;0,039477
830,2050;0,0394044
831,1693;0,0393247
832,1335;0,039247
833,0977;0,0391781
834,0620;0,0391138
835,0262;0,0390382
835,9904;0,0389312
836,9547;0,0387813
837,9189;0,0385942
838,8831;0,0383914
839,8474;0,0381984
840,8116;0,038032
841,7758;0,0378932
842,7401;0,0377716
843,7043;0,0376568
844,6685;0,0375473
845,6328;0,0374525
846,5970;0,037385
847,5612;0,0373503
848,5255;0,0373413
849,4897;0,0373403
850,4539;0,0373284
851,4182;0,0372941
852,3824;0,0372375
853,3466;0,0371681
854,3109;0,0370978
855,2751;0,0370362
856,2393;0,0369878
857,2036;0,0369542
858,1678;0,0369353
859,1320;0,0369307
860,0963;0,0369388
861,0605;0,0369566
862,0247;0,0369815
862,9890;0,0370133
863,9532;0,0370551
864,9174;0,0371105
865,8817;0,03718
866,8459;0,037258
867,8101;0,0373353
868,7744;0,0374055
869,7386;0,03747
870,7028;0,0375387
871,6671;0,0376232
872,6313;0,0377275
873,5955;0,0378435
874,5598;0,037954
875,5240;0,0380432
876,4882;0,038106
877,4525;0,038151
878,4167;0,0381949
879,3809;0,0382527
880,3452;0,0383315
881,3094;0,0384316
882,2736;0,0385524
883,2379;0,038699
884,2021;0,0388831
885,1663;0,0391181
886,1306;0,0394124
887,0948;0,039765
888,0590;0,0401671
889,0233;0,0406053
889,9875;0,0410653
890,9517;0,0415317
891,9160;0,0419858
892,8802;0,0424042
893,8444;0,0427622
894,8087;0,0430398
895,7729;0,0432278
896,7371;0,0433291
897,7014;0,043354
898,6656;0,0433123
899,6298;0,0432075
900,5941;0,0430366
901,5583;0,0427963
902,5225;0,0424904
903,4868;0,0421349
904,4510;0,0417562
905,4152;0,0413847
906,3795;0,0410461
907,3437;0,0407558
908,3079;0,0405182
909,2722;0,0403303
910,2364;0,0401872
911,2007;0,0400861
912,1649;0,0400268
913,1292;0,0400098
914,0934;0,0400331
915,0576;0,0400907
916,0219;0,0401744
916,9861;0,0402755
917,9503;0,0403872
918,9146;0,0405044
919,8788;0,0406224
920,8430;0,0407371
921,8073;0,0408463
922,7715;0,040952
923,7357;0,0410609
924,7000;0,0411813
925,6642;0,0413181
926,6284;0,0414683
927,5927;0,0416225
928,5569;0,04177
929,5211;0,0419056
930,4854;0,0420323
931,4496;0,0421589
932,4138;0,042294
933,3781;0,042442
934,3423;0,0426028
935,3065;0,0427753
936,2708;0,0429603
937,2350;0,0431618
938,1992;0,0433845
939,1635;0,043632
940,1277;0,0439073
941,0919;0,0442138
942,0562;0,0445558
943,0204;0,0449372
943,9846;0,0453583
944,9489;0,0458145
945,9131;0,0462979
946,8773;0,0468014
947,8416;0,0473225
948,8058;0,0478646
949,7700;0,0484358
950,7343;0,0490463
951,6985;0,049705
952,6627;0,050418
953,6270;0,0511847
954,5912;0,0519967
955,5554;0,0528384
956,5197;0,0536919
957,4839;0,0545453
958,4481;0,0553975
959,4124;0,0562584
960,3766;0,0571413
961,3408;0,0580527
962,3051;0,0589876
963,2693;0,059931
964,2335;0,0608672
965,1978;0,0617888
966,1620;0,0626995
967,1262;0,0636115
968,0905;0,0645386
969,0547;0,0654921
970,0189;0,0664816
970,9832;0,0675184
971,9474;0,0686187
972,9116;0,0698024
973,8759;0,0710881
974,8401;0,0724869
975,8043;0,0739988
976,7686;0,0756131
977,7328;0,0773111
978,6970;0,0790688
979,6613;0,0808572
980,6255;0,0826408
981,5897;0,084377
982,5540;0,086018
983,5182;0,0875184
984,4824;0,0888442
985,4467;0,0899816
986,4109;0,0909391
987,3751;0,0917441
988,3394;0,0924328
989,3036;0,0930396
990,2678;0,0935892
991,2321;0,0940943
992,1963;0,094559
993,1605;0,0949852
994,1248;0,0953788
995,0890;0,0957523
996,0532;0,0961237
997,0175;0,0965119
997,9817;0,0969314
998,9459;0,0973879
999,9102;0,0978785
1000,8744;0,098394
1001,8386;0,0989247
1002,8029;0,099466
1003,7671;0,100022
1004,7313;0,100608
1005,6956;0,101249
1006,6598;0,101972
1007,6240;0,102806
1008,5883;0,103769
1009,5525;0,104865
1010,5167;0,106076
1011,4810;0,107369
1012,4452;0,108699
1013,4094;0,110022
1014,3737;0,1113
1015,3379;0,112506
1016,3021;0,113626
1017,2664;0,114657
1018,2306;0,115599
1019,1948;0,116458
1020,1591;0,117246
1021,1233;0,117981
1022,0875;0,118685
1023,0518;0,119378
1024,0160;0,120076
1024,9802;0,120784
1025,9445;0,121494
1026,9087;0,122189
1027,8729;0,122839
1028,8372;0,123412
1029,8014;0,123874
1030,7656;0,124195
1031,7299;0,124345
1032,6941;0,124299
1033,6583;0,12404
1034,6226;0,123563
1035,5868;0,122886
1036,5510;0,12206
1037,5153;0,121162
1038,4795;0,120285
1039,4437;0,119513
1040,4080;0,1189
1041,3722;0,118462
1042,3364;0,118178
1043,3007;0,118007
1044,2649;0,117908
1045,2291;0,117843
1046,1934;0,117784
1047,1576;0,117705
1048,1218;0,117582
1049,0861;0,11739
1050,0503;0,117104
1051,0145;0,116708
1051,9788;0,116194
1052,9430;0,115565
1053,9072;0,114832
1054,8715;0,11401
1055,8357;0,113109
1056,7999;0,112124
1057,7642;0,111038
1058,7284;0,10982
1059,6926;0,108445
1060,6569;0,106904
1061,6211;0,105218
1062,5853;0,10344
1063,5496;0,101644
1064,5138;0,0999029
1065,4780;0,098279
1066,4423;0,0968064
1067,4065;0,0954908
1068,3707;0,0943143
1069,3350;0,0932451
1070,2992;0,0922481
1071,2634;0,0912921
1072,2277;0,0903536
1073,1919;0,0894151
1074,1561;0,088463
1075,1204;0,0874858
1076,0846;0,086476
1077,0488;0,085434
1078,0131;0,0843718
1078,9773;0,0833134
1079,9415;0,0822909
1080,9058;0,0813371
1081,8700;0,080477
1082,8342;0,079723
1083,7985;0,079074
1084,7627;0,0785175
1085,7269;0,0780358
1086,6912;0,0776112
1087,6554;0,0772306
1088,6196;0,0768881
1089,5839;0,076585
1090,5481;0,0763264
1091,5123;0,0761181
1092,4766;0,0759624
1093,4408;0,075857
1094,4050;0,0757954
1095,3693;0,0757701
1096,3335;0,0757747
1097,2977;0,0758061
1098,2620;0,0758638
1099,2262;0,0759478
1100,1904;0,076055
1101,1547;0,0761753
1102,1189;0,0762905
1103,0831;0,0763762
1104,0474;0,0764074
1105,0116;0,0763662
1105,9758;0,0762468
1106,9401;0,0760563
1107,9043;0,0758082
1108,8685;0,0755129
1109,8328;0,0751687
1110,7970;0,0747591
1111,7612;0,0742598
1112,7255;0,0736521
1113,6897;0,0729372
1114,6539;0,0721433
1115,6182;0,0713214
1116,5824;0,0705284
1117,5466;0,0698078
1118,5109;0,0691733
1119,4751;0,0686064
1120,4393;0,0680648
1121,4036;0,0674989
1122,3678;0,0668655
1123,3320;0,0661356
1124,2963;0,0652939
1125,2605;0,0643363
1126,2247;0,0632683
1127,1890;0,0621063
1128,1532;0,060878
1129,1174;0,0596182
1130,0817;0,0583615
1131,0459;0,0571344
1132,0101;0,0559525
1132,9744;0,0548247
1133,9386;0,0537599
1134,9028;0,0527724
1135,8671;0,0518817
1136,8313;0,0511069
1137,7955;0,0504621
1138,7598;0,0499529
1139,7240;0,0495774
1140,6882;0,0493284
1141,6525;0,0491943
1142,6167;0,0491592
1143,5809;0,0492035
1144,5452;0,0493065
1145,5094;0,0494513
1146,4736;0,0496287
1147,4379;0,0498385
1148,4021;0,0500856
1149,3663;0,050374
1150,3306;0,0507012
1151,2948;0,0510559
1152,2590;0,0514193
1153,2233;0,0517696
1154,1875;0,0520847
1155,1517;0,052344
1156,1160;0,0525274
1157,0802;0,0526133
1158,0444;0,0525774
1159,0087;0,0523929
1159,9729;0,0520334
1160,9371;0,051477
1161,9014;0,0507111
1162,8656;0,0497365
1163,8298;0,0485696
1164,7941;0,0472414
1165,7583;0,0457957
1166,7225;0,0442847
1167,6868;0,0427649
1168,6510;0,041291
1169,6152;0,03991
1170,5795;0,0386548
1171,5437;0,0375406
1172,5079;0,0365654
1173,4722;0,0357144
1174,4364;0,0349683
1175,4006;0,0343106
1176,3649;0,033732
1177,3291;0,0332292
1178,2933;0,0328005
1179,2576;0,0324408
1180,2218;0,0321394
1181,1860;0,0318829
1182,1503;0,0316607
1183,1145;0,0314696
1184,0787;0,0313143
1185,0430;0,0312037
1186,0072;0,0311456
1186,9714;0,0311419
1187,9357;0,0311883
1188,8999;0,0312771
1189,8641;0,0314022
1190,8284;0,0315618
1191,7926;0,0317583
1192,7568;0,0319953
1193,7211;0,0322741
1194,6853;0,0325917
1195,6495;0,0329414
1196,6138;0,0333146
1197,5780;0,0337032
1198,5422;0,0340998
1199,5065;0,0343792
1200,4707;0,0347878
1201,4349;0,0351882
1202,3992;0,0355761
1203,3634;0,0359486
1204,3276;0,0363044
1205,2919;0,0366438
1206,2561;0,0369692
1207,2203;0,0372867
1208,1846;0,0376066
1209,1488;0,0379423
1210,1130;0,0383071
1211,0773;0,0387107
1212,0415;0,0391559
1213,0057;0,0396387
1213,9700;0,0401502
1214,9342;0,0406798
1215,8984;0,0412178
1216,8627;0,0417557
1217,8269;0,0422873
1218,7911;0,0428097
1219,7554;0,0433219
1220,7196;0,0438219
1221,6838;0,0443049
1222,6481;0,044762
1223,6123;0,0451835
1224,5765;0,0455641
1225,5408;0,0459069
1226,5050;0,0462232
1227,4692;0,0465263
1228,4335;0,0468241
1229,3977;0,0471148
1230,3619;0,0473884
1231,3262;0,0476341
1232,2904;0,0478463
1233,2546;0,0480274
1234,2189;0,0481847
1235,1831;0,0483248
1236,1473;0,04845
1237,1116;0,0485587
1238,0758;0,0486477
1239,0400;0,0487147
1240,0043;0,0487588
1240,9685;0,0487791
1241,9327;0,0487734
1242,8970;0,0487382
1243,8612;0,0486708
1244,8254;0,0485705
1245,7897;0,048439
1246,7539;0,0482798
1247,7181;0,0480972
1248,6824;0,0478954
1249,6466;0,0476791
1250,6108;0,0474531
1251,5751;0,0472222
1252,5393;0,0469911
1253,5035;0,046763
1254,4678;0,0465382
1255,4320;0,0463138
1256,3962;0,0460837
1257,3605;0,04584
1258,3247;0,0455761
1259,2889;0,0452885
1260,2532;0,0449786
1261,2174;0,044651
1262,1816;0,0443112
1263,1459;0,0439626
1264,1101;0,0436058
1265,0743;0,043239
1266,0386;0,0428598
1267,0028;0,042466
1267,9670;0,0420563
1268,9313;0,041631
1269,8955;0,0411929
1270,8597;0,040747
1271,8240;0,0402999
1272,7882;0,0398585
1273,7524;0,0394285
1274,7167;0,0390136
1275,6809;0,0386161
1276,6451;0,0382359
1277,6094;0,0378711
1278,5736;0,0375174
1279,5378;0,0371701
1280,5021;0,0368272
1281,4663;0,0364918
1282,4305;0,0361706
1283,3948;0,0358712
1284,3590;0,0355965
1285,3232;0,0353434
1286,2875;0,0351038
1287,2517;0,0348705
1288,2159;0,0346415
1289,1802;0,0344227
1290,1444;0,0342248
1291,1086;0,0340597
1292,0729;0,0339358
1293,0371;0,0338568
1294,0013;0,0338224
1294,9656;0,0338297
1295,9298;0,0338737
1296,8940;0,0339487
1297,8583;0,0340496
1298,8225;0,0341733
1299,7867;0,0343207
1300,7510;0,0344955
1301,7152;0,0347046
1302,6794;0,0349522
1303,6437;0,0352362
1304,6079;0,0355487
1305,5721;0,035877
1306,5364;0,0362086
1307,5006;0,0365367
1308,4648;0,0368622
1309,4291;0,0371912
1310,3933;0,0375285
1311,3575;0,0378719
1312,3218;0,0382103
1313,2860;0,0385264
1314,2502;0,0388024
1315,2145;0,039023
1316,1787;0,0391756
1317,1429;0,0392488
1318,1072;0,0392351
1319,0714;0,0391375
1320,0356;0,0389737
1320,9999;0,0387735
1321,9641;0,038568
1322,9283;0,0383805
1323,8926;0,0382222
1324,8568;0,0380947
1325,8210;0,0379936
1326,7853;0,0379124
1327,7495;0,0378432
1328,7137;0,0377775
1329,6780;0,0377066
1330,6422;0,0376243
1331,6064;0,0375303
1332,5707;0,0374301
1333,5349;0,0373332
1334,4991;0,0372455
1335,4634;0,0371618
1336,4276;0,0370613
1337,3918;0,0369079
1338,3561;0,0366651
1339,3203;0,0363235
1340,2845;0,0359196
1341,2488;0,035517
1342,2130;0,0351666
1343,1772;0,0348867
1344,1415;0,034673
1345,1057;0,0345158
1346,0699;0,0344099
