TITLE;
DATA TYPE;INFRARED SPECTRUM
ORIGIN;JASCO
OWNER;
DATE;25/03/17
TIME;15:08:48
SPECTROMETER/DATA SYSTEM;
LOCALE;9226
RESOLUTION;
DELTAX;0,964233
XUNITS;1/CM
YUNITS;ABSORBANCE
FIRSTX;  399,1927
LASTX; 4000,6047
NPOINTS;    3736
FIRSTY;     0,17167
MAXY;     0,21876
MINY;     0,00643
XYDATA
399,1927;0,171666
400,1569;0,170181
401,1211;0,169104
402,0854;0,168654
403,0496;0,16878
404,0138;0,169343
404,9781;0,170149
405,9423;0,170948
406,9065;0,171498
407,8708;0,171667
408,8350;0,171508
409,7992;0,171208
410,7635;0,170967
411,7277;0,170875
412,6919;0,17089
413,6562;0,170912
414,6204;0,170903
415,5846;0,170932
416,5489;0,171163
417,5131;0,171742
418,4773;0,172603
419,4416;0,173379
420,4058;0,173725
421,3700;0,173668
422,3343;0,173479
423,2985;0,173394
424,2627;0,173492
425,2270;0,173693
426,1912;0,173818
427,1554;0,1737
428,1197;0,173273
429,0839;0,172592
430,0481;0,171791
431,0124;0,171021
431,9766;0,17039
432,9408;0,169943
433,9051;0,169656
434,8693;0,169466
435,8335;0,169301
436,7978;0,169099
437,7620;0,168827
438,7262;0,168478
439,6905;0,168073
440,6547;0,167662
441,6189;0,167315
442,5832;0,167095
443,5474;0,167015
444,5116;0,166999
445,4759;0,166905
446,4401;0,166594
447,4043;0,166011
448,3686;0,165212
449,3328;0,164347
450,2970;0,163591
451,2613;0,163062
452,2255;0,162758
453,1897;0,162572
454,1540;0,162378
455,1182;0,162112
456,0824;0,161812
457,0467;0,161585
458,0109;0,161499
458,9751;0,161503
459,9394;0,161458
460,9036;0,161247
461,8678;0,160853
462,8321;0,160333
463,7963;0,15977
464,7605;0,159228
465,7248;0,158749
466,6890;0,158375
467,6532;0,158165
468,6175;0,158185
469,5817;0,158464
470,5459;0,158947
471,5102;0,159484
472,4744;0,15989
473,4386;0,160044
474,4029;0,159958
475,3671;0,159722
476,3313;0,15943
477,2956;0,159135
478,2598;0,158867
479,2240;0,15866
480,1883;0,15856
481,1525;0,15861
482,1167;0,158823
483,0810;0,159176
484,0452;0,159622
485,0094;0,160107
485,9737;0,160574
486,9379;0,160964
487,9021;0,161224
488,8664;0,161329
489,8306;0,161307
490,7948;0,161256
491,7591;0,161307
492,7233;0,16156
493,6875;0,16202
494,6518;0,162602
495,6160;0,163193
496,5802;0,163714
497,5445;0,164141
498,5087;0,164487
499,4729;0,164761
500,4372;0,164952
501,4014;0,165042
502,3656;0,165036
503,3299;0,16498
504,2941;0,164947
505,2583;0,16501
506,2226;0,16522
507,1868;0,165597
508,1510;0,166132
509,1153;0,166778
510,0795;0,167459
511,0437;0,168081
512,0080;0,168572
512,9722;0,16891
513,9365;0,16914
514,9007;0,169358
515,8649;0,169669
516,8292;0,170134
517,7934;0,170721
518,7576;0,171317
519,7219;0,171791
520,6861;0,172075
521,6503;0,172179
522,6146;0,172164
523,5788;0,172107
524,5430;0,172068
525,5073;0,172079
526,4715;0,172133
527,4357;0,172186
528,4000;0,172178
529,3642;0,172052
530,3284;0,171775
531,2927;0,171344
532,2569;0,170793
533,2211;0,17019
534,1854;0,169625
535,1496;0,169181
536,1138;0,168919
537,0781;0,16886
538,0423;0,168982
539,0065;0,169221
539,9708;0,169488
540,9350;0,169692
541,8992;0,169772
542,8635;0,16972
543,8277;0,169586
544,7919;0,169459
545,7562;0,169431
546,7204;0,169559
547,6846;0,169842
548,6489;0,170231
549,6131;0,170658
550,5773;0,171076
551,5416;0,171478
552,5058;0,171897
553,4700;0,172369
554,4343;0,172903
555,3985;0,173443
556,3627;0,17388
557,3270;0,174086
558,2912;0,173975
559,2554;0,17354
560,2197;0,172863
561,1839;0,172075
562,1481;0,171301
563,1124;0,170616
564,0766;0,170027
565,0408;0,169498
566,0051;0,168988
566,9693;0,168487
567,9335;0,168025
568,8978;0,167655
569,8620;0,167419
570,8262;0,167315
571,7905;0,167296
572,7547;0,167286
573,7189;0,16721
574,6832;0,167022
575,6474;0,166726
576,6116;0,166367
577,5759;0,166013
578,5401;0,165714
579,5043;0,165485
580,4686;0,165305
581,4328;0,165135
582,3970;0,164942
583,3613;0,164718
584,3255;0,164477
585,2897;0,164244
586,2540;0,164045
587,2182;0,16389
588,1824;0,163776
589,1467;0,163686
590,1109;0,163598
591,0751;0,163492
592,0394;0,163359
593,0036;0,163202
593,9678;0,163029
594,9321;0,162847
595,8963;0,162657
596,8605;0,162449
597,8248;0,162213
598,7890;0,161941
599,7532;0,161636
600,7175;0,161302
601,6817;0,160949
602,6459;0,160585
603,6102;0,160219
604,5744;0,159857
605,5386;0,159494
606,5029;0,159112
607,4671;0,158677
608,4313;0,158157
609,3956;0,157542
610,3598;0,156857
611,3240;0,156154
612,2883;0,155488
613,2525;0,154877
614,2167;0,154295
615,1810;0,153675
616,1452;0,152947
617,1094;0,152077
618,0737;0,151088
619,0379;0,150046
620,0021;0,149014
620,9664;0,14802
621,9306;0,147058
622,8948;0,146113
623,8591;0,145187
624,8233;0,144312
625,7875;0,143519
626,7518;0,142831
627,7160;0,142235
628,6802;0,141689
629,6445;0,141142
630,6087;0,140561
631,5729;0,139943
632,5372;0,139311
633,5014;0,138695
634,4656;0,138114
635,4299;0,137576
636,3941;0,137076
637,3583;0,13661
638,3226;0,136177
639,2868;0,135775
640,2510;0,135392
641,2153;0,135012
642,1795;0,134616
643,1437;0,134196
644,1080;0,133763
645,0722;0,133337
646,0364;0,132932
647,0007;0,132552
647,9649;0,132191
648,9291;0,131844
649,8934;0,131522
650,8576;0,13125
651,8218;0,131046
652,7861;0,130918
653,7503;0,130866
654,7145;0,130889
655,6788;0,131002
656,6430;0,131219
657,6072;0,131537
658,5715;0,131909
659,5357;0,132248
660,4999;0,13246
661,4642;0,132508
662,4284;0,132441
663,3926;0,132354
664,3569;0,13232
665,3211;0,13232
666,2853;0,132191
667,2496;0,131629
668,2138;0,130421
669,1780;0,128807
670,1423;0,127281
671,1065;0,126034
672,0707;0,124955
673,0350;0,123876
673,9992;0,122671
674,9634;0,121299
675,9277;0,119815
676,8919;0,118331
677,8561;0,116942
678,8204;0,11569
679,7846;0,11457
680,7488;0,113575
681,7131;0,112699
682,6773;0,111933
683,6415;0,111257
684,6058;0,110643
685,5700;0,110078
686,5342;0,109566
687,4985;0,109126
688,4627;0,108776
689,4269;0,108514
690,3912;0,108316
691,3554;0,10814
692,3196;0,107936
693,2839;0,107675
694,2481;0,107355
695,2123;0,107006
696,1766;0,10667
697,1408;0,106376
698,1050;0,106126
699,0693;0,105889
700,0335;0,105625
700,9977;0,1053
701,9620;0,104904
702,9262;0,104449
703,8904;0,103962
704,8547;0,103472
705,8189;0,103002
706,7831;0,10256
707,7474;0,102143
708,7116;0,101732
709,6758;0,101297
710,6401;0,100813
711,6043;0,100265
712,5685;0,0996584
713,5328;0,0990124
714,4970;0,0983491
715,4612;0,0977602
716,4255;0,0970634
717,3897;0,0963347
718,3539;0,0955684
719,3182;0,0947786
720,2824;0,0939971
721,2466;0,0932556
722,2109;0,0925664
723,1751;0,0919167
724,1393;0,0912816
725,1036;0,0906424
726,0678;0,0899962
727,0320;0,0893515
727,9963;0,0887172
728,9605;0,0880932
729,9247;0,0874739
730,8890;0,086859
731,8532;0,086261
732,8174;0,0857018
733,7817;0,0851984
734,7459;0,0847513
735,7101;0,0843451
736,6744;0,0839604
737,6386;0,0835872
738,6028;0,0832293
739,5671;0,0828949
740,5313;0,0825848
741,4955;0,0822869
742,4598;0,0819824
743,4240;0,0816581
744,3882;0,0813138
745,3525;0,0809603
746,3167;0,0806092
747,2809;0,080264
748,2452;0,079919
749,2094;0,0795665
750,1736;0,079204
751,1379;0,0788374
752,1021;0,0784751
753,0663;0,078119
754,0306;0,0777606
754,9948;0,0773859
755,9590;0,0769857
756,9233;0,0765658
757,8875;0,0761472
758,8517;0,0757557
759,8160;0,0754086
760,7802;0,075104
761,7444;0,0748221
762,7087;0,0745366
763,6729;0,0742287
764,6371;0,0738965
765,6014;0,0735537
766,5656;0,0732205
767,5298;0,0729115
768,4941;0,072627
769,4583;0,0723529
770,4225;0,0720679
771,3868;0,071754
772,3510;0,0714057
773,3152;0,0710337
774,2795;0,0706612
775,2437;0,0703152
776,2079;0,0700157
777,1722;0,0697672
778,1364;0,069557
779,1006;0,0693584
780,0649;0,0691406
781,0291;0,0688784
781,9933;0,0685598
782,9576;0,0681889
783,9218;0,0677815
784,8860;0,0673595
785,8503;0,066944
786,8145;0,0665527
787,7787;0,0661988
788,7430;0,0658916
789,7072;0,0656349
790,6714;0,0654241
791,6357;0,0652459
792,5999;0,0650826
793,5641;0,0649202
794,5284;0,0647553
795,4926;0,064596
796,4568;0,0644542
797,4211;0,0643337
798,3853;0,0642234
799,3495;0,0640993
800,3138;0,0639372
801,2780;0,0637263
802,2422;0,0634771
803,2065;0,0632172
804,1707;0,0629788
805,1349;0,0627845
806,0992;0,0626395
807,0634;0,0625328
808,0276;0,0624446
808,9919;0,0623573
809,9561;0,062262
810,9203;0,0621605
811,8846;0,062062
812,8488;0,0619752
813,8130;0,0619022
814,7773;0,0618347
815,7415;0,0617571
816,7057;0,0616558
817,6700;0,0615289
818,6342;0,0613915
819,5984;0,0612706
820,5627;0,0611909
821,5269;0,0611602
822,4911;0,0611624
823,4554;0,0611651
824,4196;0,061136
825,3839;0,0610606
826,3481;0,0609485
827,3123;0,0608258
828,2766;0,0607188
829,2408;0,0606401
830,2050;0,0605834
831,1693;0,0605296
832,1335;0,0604574
833,0977;0,0603514
834,0620;0,0602057
835,0262;0,0600217
835,9904;0,0598065
836,9547;0,0595719
837,9189;0,0593325
838,8831;0,0591034
839,8474;0,0588956
840,8116;0,0587126
841,7758;0,0585512
842,7401;0,0584062
843,7043;0,0582759
844,6685;0,0581628
845,6328;0,0580716
846,5970;0,0580029
847,5612;0,0579503
848,5255;0,057902
849,4897;0,0578459
850,4539;0,0577752
851,4182;0,0576897
852,3824;0,0575944
853,3466;0,057497
854,3109;0,057407
855,2751;0,0573357
856,2393;0,0572953
857,2036;0,0572961
858,1678;0,0573396
859,1320;0,057415
860,0963;0,0575013
861,0605;0,057576
862,0247;0,0576269
862,9890;0,0576599
863,9532;0,0576971
864,9174;0,0577664
865,8817;0,0578883
866,8459;0,0580668
867,8101;0,0582899
868,7744;0,0585378
869,7386;0,0587942
870,7028;0,0590522
871,6671;0,0593116
872,6313;0,0595703
873,5955;0,0598149
874,5598;0,0600185
875,5240;0,0601486
876,4882;0,0601838
877,4525;0,0601295
878,4167;0,0600241
879,3809;0,0599297
880,3452;0,059911
881,3094;0,0600122
882,2736;0,0602441
883,2379;0,0605893
884,2021;0,0610196
885,1663;0,0615171
886,1306;0,0620834
887,0948;0,0627345
888,0590;0,0634829
889,0233;0,0643209
889,9875;0,0652128
890,9517;0,0661032
891,9160;0,0669338
892,8802;0,0676611
893,8444;0,0682655
894,8087;0,0687477
895,7729;0,0691174
896,7371;0,0693788
897,7014;0,0695237
898,6656;0,0695344
899,6298;0,0693962
900,5941;0,0691102
901,5583;0,0686998
902,5225;0,0682067
903,4868;0,0676783
904,4510;0,0671533
905,4152;0,0666557
906,3795;0,0661967
907,3437;0,0657822
908,3079;0,0654198
909,2722;0,0651202
910,2364;0,0648943
911,2007;0,0647489
912,1649;0,0646856
913,1292;0,0647018
914,0934;0,0647922
915,0576;0,0649478
916,0219;0,0651544
916,9861;0,0653929
917,9503;0,0656428
918,9146;0,0658885
919,8788;0,0661246
920,8430;0,0663551
921,8073;0,0665883
922,7715;0,0668287
923,7357;0,0670729
924,7000;0,0673101
925,6642;0,067528
926,6284;0,0677182
927,5927;0,0678796
928,5569;0,0680162
929,5211;0,0681339
930,4854;0,0682374
931,4496;0,0683317
932,4138;0,0684246
933,3781;0,0685276
934,3423;0,0686544
935,3065;0,0688154
936,2708;0,069015
937,2350;0,0692525
938,1992;0,0695281
939,1635;0,0698482
940,1277;0,0702259
941,0919;0,0706747
942,0562;0,0712004
943,0204;0,0717984
943,9846;0,0724583
944,9489;0,0731749
945,9131;0,0739548
946,8773;0,0748152
947,8416;0,0757728
948,8058;0,0768323
949,7700;0,0779817
950,7343;0,0791993
951,6985;0,0804664
952,6627;0,0817774
953,6270;0,0831412
954,5912;0,0845735
955,5554;0,0860857
956,5197;0,0876777
957,4839;0,0893374
958,4481;0,0910452
959,4124;0,0927801
960,3766;0,0945244
961,3408;0,0962655
962,3051;0,0979977
963,2693;0,0997225
964,2335;0,101449
965,1978;0,10319
966,1620;0,104963
967,1262;0,106785
968,0905;0,108667
969,0547;0,110623
970,0189;0,112663
970,9832;0,114804
971,9474;0,11707
972,9116;0,11949
973,8759;0,122098
974,8401;0,124921
975,8043;0,127974
976,7686;0,13125
977,7328;0,134715
978,6970;0,138313
979,6613;0,141967
980,6255;0,145595
981,5897;0,149117
982,5540;0,15246
983,5182;0,155569
984,4824;0,158408
985,4467;0,160964
986,4109;0,163243
987,3751;0,165274
988,3394;0,167094
989,3036;0,168741
990,2678;0,170242
991,2321;0,171607
992,1963;0,172834
993,1605;0,173913
994,1248;0,174848
995,0890;0,175657
996,0532;0,176377
997,0175;0,17705
997,9817;0,177711
998,9459;0,178379
999,9102;0,179061
1000,8744;0,179758
1001,8386;0,180483
1002,8029;0,181266
1003,7671;0,182146
1004,7313;0,183169
1005,6956;0,184371
1006,6598;0,185774
1007,6240;0,187386
1008,5883;0,1892
1009,5525;0,191195
1010,5167;0,193335
1011,4810;0,195566
1012,4452;0,197823
1013,4094;0,200037
1014,3737;0,202152
1015,3379;0,204135
1016,3021;0,205972
1017,2664;0,207661
1018,2306;0,209208
1019,1948;0,210618
1020,1591;0,211897
1021,1233;0,213055
1022,0875;0,214104
1023,0518;0,215053
1024,0160;0,215909
1024,9802;0,21667
1025,9445;0,21733
1026,9087;0,217882
1027,8729;0,218319
1028,8372;0,218624
1029,8014;0,218762
1030,7656;0,218673
1031,7299;0,218288
1032,6941;0,217541
1033,6583;0,216402
1034,6226;0,214895
1035,5868;0,213099
1036,5510;0,211137
1037,5153;0,209148
1038,4795;0,207258
1039,4437;0,205563
1040,4080;0,204117
1041,3722;0,202932
1042,3364;0,201986
1043,3007;0,201231
1044,2649;0,200602
1045,2291;0,200032
1046,1934;0,199458
1047,1576;0,19883
1048,1218;0,19811
1049,0861;0,197264
1050,0503;0,196259
1051,0145;0,195069
1051,9788;0,193679
1052,9430;0,1921
1053,9072;0,190358
1054,8715;0,188488
1055,8357;0,186506
1056,7999;0,184401
1057,7642;0,182131
1058,7284;0,179645
1059,6926;0,176912
1060,6569;0,173945
1061,6211;0,170812
1062,5853;0,167622
1063,5496;0,164497
1064,5138;0,161548
1065,4780;0,158848
1066,4423;0,156428
1067,4065;0,154273
1068,3707;0,152344
1069,3350;0,150583
1070,2992;0,148932
1071,2634;0,147338
1072,2277;0,145757
1073,1919;0,144148
1074,1561;0,142477
1075,1204;0,140718
1076,0846;0,138862
1077,0488;0,13692
1078,0131;0,134932
1078,9773;0,132955
1079,9415;0,131055
1080,9058;0,129289
1081,8700;0,127691
1082,8342;0,126269
1083,7985;0,125008
1084,7627;0,123885
1085,7269;0,122879
1086,6912;0,121982
1087,6554;0,121194
1088,6196;0,120521
1089,5839;0,11997
1090,5481;0,119537
1091,5123;0,119213
1092,4766;0,118982
1093,4408;0,11883
1094,4050;0,118748
1095,3693;0,118729
1096,3335;0,11877
1097,2977;0,118864
1098,2620;0,118998
1099,2262;0,119153
1100,1904;0,119302
1101,1547;0,119422
1102,1189;0,11949
1103,0831;0,119491
1104,0474;0,119418
1105,0116;0,119268
1105,9758;0,119045
1106,9401;0,118756
1107,9043;0,118405
1108,8685;0,117987
1109,8328;0,117478
1110,7970;0,116839
1111,7612;0,116025
1112,7255;0,115011
1113,6897;0,113808
1114,6539;0,112478
1115,6182;0,111113
1116,5824;0,109807
1117,5466;0,108622
1118,5109;0,107569
1119,4751;0,10661
1120,4393;0,105677
1121,4036;0,104696
1122,3678;0,103603
1123,3320;0,102359
1124,2963;0,100943
1125,2605;0,0993561
1126,2247;0,0976179
1127,1890;0,0957614
1128,1532;0,0938277
1129,1174;0,0918576
1130,0817;0,0898854
1131,0459;0,0879382
1132,0101;0,0860399
1132,9744;0,0842173
1133,9386;0,0825032
1134,9028;0,0809351
1135,8671;0,0795509
1136,8313;0,0783829
1137,7955;0,0774537
1138,7598;0,076773
1139,7240;0,0763356
1140,6882;0,0761211
1141,6525;0,0760969
1142,6167;0,0762245
1143,5809;0,076468
1144,5452;0,0768011
1145,5094;0,077208
1146,4736;0,07768
1147,4379;0,0782086
1148,4021;0,0787813
1149,3663;0,07938
1150,3306;0,0799836
1151,2948;0,0805706
1152,2590;0,0811189
1153,2233;0,0816047
1154,1875;0,0820002
1155,1517;0,0822729
1156,1160;0,082387
1157,0802;0,0823037
1158,0444;0,081981
1159,0087;0,0813737
1159,9729;0,0804355
1160,9371;0,0791265
1161,9014;0,0774248
1162,8656;0,075338
1163,8298;0,0729105
1164,7941;0,0702212
1165,7583;0,0673737
1166,7225;0,0644807
1167,6868;0,0616478
1168,6510;0,05896
1169,6152;0,0564737
1170,5795;0,0542157
1171,5437;0,0521889
1172,5079;0,0503826
1173,4722;0,0487822
1174,4364;0,0473745
1175,4006;0,0461486
1176,3649;0,0450919
1177,3291;0,0441881
1178,2933;0,0434176
1179,2576;0,0427612
1180,2218;0,0422027
1181,1860;0,0417307
1182,1503;0,0413371
1183,1145;0,0410152
1184,0787;0,0407603
1185,0430;0,0405714
1186,0072;0,0404528
1186,9714;0,0404137
1187,9357;0,0404649
1188,8999;0,0406148
1189,8641;0,0408665
1190,8284;0,0412172
1191,7926;0,0416599
1192,7568;0,042185
1193,7211;0,042781
1194,6853;0,0434355
1195,6495;0,0441353
1196,6138;0,0448676
1197,5780;0,0456212
1198,5422;0,0463873
1199,5065;0,047172
1200,4707;0,0479412
1201,4349;0,0487027
1202,3992;0,049448
1203,3634;0,0501678
1204,3276;0,0508548
1205,2919;0,0515065
1206,2561;0,0521286
1207,2203;0,0527351
1208,1846;0,053347
1209,1488;0,0539882
1210,1130;0,0546809
1211,0773;0,0554409
1212,0415;0,0562749
1213,0057;0,05718
1213,9700;0,0581451
1214,9342;0,0591551
1215,8984;0,0601932
1216,8627;0,0612432
1217,8269;0,0622909
1218,7911;0,063324
1219,7554;0,0643326
1220,7196;0,06531
1221,6838;0,0662509
1222,6481;0,067151
1223,6123;0,068005
1224,5765;0,0688071
1225,5408;0,069553
1226,5050;0,0702419
1227,4692;0,0708778
1228,4335;0,071466
1229,3977;0,0720101
1230,3619;0,0725077
1231,3262;0,0729515
1232,2904;0,0733329
1233,2546;0,0736465
1234,2189;0,0738938
1235,1831;0,0740818
1236,1473;0,0742198
1237,1116;0,0743151
1238,0758;0,0743713
1239,0400;0,0743887
1240,0043;0,0743661
1240,9685;0,0743024
1241,9327;0,074197
1242,8970;0,074049
1243,8612;0,0738567
1244,8254;0,0736172
1245,7897;0,0733277
1246,7539;0,0729865
1247,7181;0,0725962
1248,6824;0,0721641
1249,6466;0,0717026
1250,6108;0,0712262
1251,5751;0,0707489
1252,5393;0,0702804
1253,5035;0,0698241
1254,4678;0,0693763
1255,4320;0,0689283
1256,3962;0,068469
1257,3605;0,0679891
1258,3247;0,0674833
1259,2889;0,0669515
1260,2532;0,0663964
1261,2174;0,0658193
1262,1816;0,0652174
1263,1459;0,0645841
1264,1101;0,063913
1265,0743;0,0632013
1266,0386;0,0624521
1267,0028;0,0616722
1267,9670;0,0608694
1268,9313;0,0600503
1269,8955;0,0592209
1270,8597;0,0583871
1271,8240;0,0575551
1272,7882;0,0567292
1273,7524;0,0559105
1274,7167;0,0550985
1275,6809;0,0542938
1276,6451;0,0535016
1277,6094;0,0527313
1278,5736;0,0519927
1279,5378;0,0512908
1280,5021;0,050624
1281,4663;0,0499861
1282,4305;0,0493709
1283,3948;0,0487769
1284,3590;0,0482085
1285,3232;0,0476747
1286,2875;0,0471874
1287,2517;0,0467589
1288,2159;0,0463994
1289,1802;0,0461147
1290,1444;0,0459039
1291,1086;0,0457612
1292,0729;0,0456797
1293,0371;0,045656
1294,0013;0,0456926
1294,9656;0,0457959
1295,9298;0,0459715
1296,8940;0,0462193
1297,8583;0,0465334
1298,8225;0,0469041
1299,7867;0,047323
1300,7510;0,0477849
1301,7152;0,0482882
1302,6794;0,048833
1303,6437;0,0494198
1304,6079;0,0500473
1305,5721;0,0507116
1306,5364;0,0514055
1307,5006;0,0521189
1308,4648;0,052841
1309,4291;0,0535628
1310,3933;0,054277
1311,3575;0,0549759
1312,3218;0,0556467
1313,2860;0,0562692
1314,2502;0,0568165
1315,2145;0,0572593
1316,1787;0,0575723
1317,1429;0,0577406
1318,1072;0,0577669
1319,0714;0,0576751
1320,0356;0,0575056
1320,9999;0,057303
1321,9641;0,0571027
1322,9283;0,0569243
1323,8926;0,0567738
1324,8568;0,0566503
1325,8210;0,0565499
1326,7853;0,0564684
1327,7495;0,0564006
1328,7137;0,056339
1329,6780;0,0562733
1330,6422;0,0561913
1331,6064;0,0560807
1332,5707;0,0559301
1333,5349;0,0557279
1334,4991;0,0554584
1335,4634;0,0551003
1336,4276;0,0546321
1337,3918;0,0540487
1338,3561;0,0533835
1339,3203;0,052713
1340,2845;0,0521244
1341,2488;0,0516667
1342,2130;0,0513332
1343,1772;0,0510842
1344,1415;0,0508789
1345,1057;0,0506952
1346,0699;0,0505346
1347,0342;0,0504177
1347,9984;0,050373
1348,9626;0,0504233
1349,9269;0,0505754
1350,8911;0,0508175
1351,8553;0,0511262
1352,8196;0,0514781
1353,7838;0,0518625
1354,7480;0,0522863
1355,7123;0,0527662
1356,6765;0,0533125
1357,6407;0,0539172
1358,6050;0,0545536
