TITLE;
DATA TYPE;INFRARED SPECTRUM
ORIGIN;JASCO
OWNER;
DATE;25/03/17
TIME;15:12:27
SPECTROMETER/DATA SYSTEM;
LOCALE;9226
RESOLUTION;
DELTAX;0,964233
XUNITS;1/CM
YUNITS;ABSORBANCE
FIRSTX;  399,1927
LASTX; 4000,6047
NPOINTS;    3736
FIRSTY;     0,13693
MAXY;     0,16252
MINY;     0,00614
XYDATA
399,1927;0,136928
400,1569;0,133857
401,1211;0,131397
402,0854;0,129831
403,0496;0,129009
404,0138;0,128695
404,9781;0,128692
405,9423;0,128854
406,9065;0,129055
407,8708;0,129186
408,8350;0,129187
409,7992;0,129091
410,7635;0,129027
411,7277;0,129151
412,6919;0,12955
413,6562;0,130186
414,6204;0,130953
415,5846;0,131739
416,5489;0,132459
417,5131;0,133033
418,4773;0,133357
419,4416;0,133344
420,4058;0,133023
421,3700;0,132521
422,3343;0,13198
423,2985;0,131523
424,2627;0,13125
425,2270;0,131214
426,1912;0,131383
427,1554;0,131634
428,1197;0,131819
429,0839;0,131856
430,0481;0,131783
431,0124;0,131744
431,9766;0,131911
432,9408;0,132381
433,9051;0,133108
434,8693;0,133919
435,8335;0,134604
436,7978;0,13503
437,7620;0,135176
438,7262;0,135092
439,6905;0,134821
440,6547;0,13438
441,6189;0,133798
442,5832;0,133175
443,5474;0,132675
444,5116;0,132426
445,4759;0,132416
446,4401;0,132492
447,4043;0,132464
448,3686;0,132237
449,3328;0,131847
450,2970;0,131428
451,2613;0,131102
452,2255;0,130897
453,1897;0,130751
454,1540;0,130582
455,1182;0,130384
456,0824;0,130242
457,0467;0,130284
458,0109;0,130554
458,9751;0,130943
459,9394;0,131261
460,9036;0,131383
461,8678;0,131307
462,8321;0,131111
463,7963;0,130882
464,7605;0,130666
465,7248;0,13047
466,6890;0,130278
467,6532;0,130086
468,6175;0,129909
469,5817;0,129778
470,5459;0,129728
471,5102;0,129802
472,4744;0,130039
473,4386;0,130446
474,4029;0,130961
475,3671;0,131454
476,3313;0,131762
477,2956;0,131754
478,2598;0,131399
479,2240;0,1308
480,1883;0,130169
481,1525;0,129742
482,1167;0,129674
483,0810;0,129972
484,0452;0,130493
485,0094;0,131031
485,9737;0,131423
486,9379;0,131617
487,9021;0,131657
488,8664;0,131617
489,8306;0,131547
490,7948;0,131461
491,7591;0,131357
492,7233;0,131246
493,6875;0,131173
494,6518;0,131188
495,6160;0,131312
496,5802;0,131511
497,5445;0,131705
498,5087;0,131808
499,4729;0,131775
500,4372;0,131622
501,4014;0,131421
502,3656;0,131249
503,3299;0,131147
504,2941;0,131113
505,2583;0,131143
506,2226;0,131261
507,1868;0,131526
508,1510;0,131981
509,1153;0,132597
510,0795;0,13326
511,0437;0,133814
512,0080;0,134137
512,9722;0,134201
513,9365;0,134079
514,9007;0,133912
515,8649;0,133855
516,8292;0,134006
517,7934;0,134364
518,7576;0,134827
519,7219;0,135254
520,6861;0,135538
521,6503;0,135631
522,6146;0,135532
523,5788;0,135264
524,5430;0,134869
525,5073;0,134423
526,4715;0,134022
527,4357;0,133749
528,4000;0,133621
529,3642;0,133584
530,3284;0,133541
531,2927;0,133403
532,2569;0,13314
533,2211;0,132792
534,1854;0,132446
535,1496;0,132186
536,1138;0,132047
537,0781;0,132012
538,0423;0,13204
539,0065;0,132093
539,9708;0,132155
540,9350;0,132216
541,8992;0,132259
542,8635;0,132264
543,8277;0,132226
544,7919;0,132174
545,7562;0,132169
546,7204;0,132275
547,6846;0,132519
548,6489;0,132878
549,6131;0,13329
550,5773;0,133701
551,5416;0,134087
552,5058;0,134463
553,4700;0,134857
554,4343;0,135275
555,3985;0,135674
556,3627;0,135959
557,3270;0,136016
558,2912;0,135746
559,2554;0,135116
560,2197;0,134171
561,1839;0,133027
562,1481;0,131838
563,1124;0,130738
564,0766;0,129812
565,0408;0,129073
566,0051;0,128484
566,9693;0,127985
567,9335;0,127526
568,8978;0,127083
569,8620;0,126658
570,8262;0,126272
571,7905;0,125945
572,7547;0,125686
573,7189;0,125489
574,6832;0,125334
575,6474;0,125197
576,6116;0,125057
577,5759;0,124911
578,5401;0,124765
579,5043;0,124624
580,4686;0,124488
581,4328;0,124347
582,3970;0,124189
583,3613;0,124019
584,3255;0,123854
585,2897;0,123724
586,2540;0,123651
587,2182;0,123638
588,1824;0,123664
589,1467;0,123692
590,1109;0,123683
591,0751;0,123603
592,0394;0,123443
593,0036;0,123214
593,9678;0,122948
594,9321;0,122676
595,8963;0,122424
596,8605;0,122203
597,8248;0,122009
598,7890;0,121824
599,7532;0,121633
600,7175;0,121421
601,6817;0,121187
602,6459;0,120939
603,6102;0,120685
604,5744;0,120428
605,5386;0,120158
606,5029;0,119851
607,4671;0,119487
608,4313;0,119058
609,3956;0,118582
610,3598;0,118093
611,3240;0,117623
612,2883;0,117186
613,2525;0,116768
614,2167;0,116331
615,1810;0,115833
616,1452;0,115245
617,1094;0,114568
618,0737;0,113827
619,0379;0,113054
620,0021;0,112269
620,9664;0,111476
621,9306;0,110671
622,8948;0,10986
623,8591;0,10907
624,8233;0,108346
625,7875;0,107731
626,7518;0,107238
627,7160;0,106839
628,6802;0,106476
629,6445;0,106086
630,6087;0,105632
631,5729;0,105118
632,5372;0,104578
633,5014;0,104062
634,4656;0,103605
635,4299;0,10322
636,3941;0,102895
637,3583;0,102611
638,3226;0,102344
639,2868;0,102074
640,2510;0,101784
641,2153;0,101465
642,1795;0,10112
643,1437;0,10077
644,1080;0,100442
645,0722;0,100153
646,0364;0,0998982
647,0007;0,0996547
647,9649;0,0993973
648,9291;0,0991221
649,8934;0,0988538
650,8576;0,0986322
651,8218;0,0984878
652,7861;0,0984287
653,7503;0,0984451
654,7145;0,098525
655,6788;0,0986667
656,6430;0,0988752
657,6072;0,0991472
658,5715;0,0994521
659,5357;0,0997277
660,4999;0,0999011
661,4642;0,0999335
662,4284;0,0998494
663,3926;0,0997202
664,3569;0,0996198
665,3211;0,099587
666,2853;0,099587
667,2496;0,0994624
668,2138;0,0989633
669,1780;0,0980109
670,1423;0,0968426
671,1065;0,0956943
672,0707;0,0946065
673,0350;0,0935213
673,9992;0,0923899
674,9634;0,0912166
675,9277;0,0900574
676,8919;0,0889793
677,8561;0,0880108
678,8204;0,0871324
679,7846;0,0863106
680,7488;0,0855308
681,7131;0,084803
682,6773;0,0841435
683,6415;0,0835575
684,6058;0,0830367
685,5700;0,0825703
686,5342;0,0821551
687,4985;0,0817965
688,4627;0,0815013
689,4269;0,081271
690,3912;0,0810978
691,3554;0,0809665
692,3196;0,0808577
693,2839;0,0807511
694,2481;0,080627
695,2123;0,0804677
696,1766;0,0802598
697,1408;0,0799969
698,1050;0,0796835
699,0693;0,0793347
700,0335;0,0789703
700,9977;0,0786055
701,9620;0,0782441
702,9262;0,0778785
703,8904;0,077499
704,8547;0,0771048
705,8189;0,0767102
706,7831;0,0763371
707,7474;0,0759992
708,7116;0,0756879
709,6758;0,0753714
710,6401;0,0750092
711,6043;0,0745742
712,5685;0,0740684
713,5328;0,073521
714,4970;0,0729699
715,4612;0,0724429
716,4255;0,071918
717,3897;0,0713705
718,3539;0,070766
719,3182;0,0700908
720,2824;0,0693646
721,2466;0,068632
722,2109;0,0679383
723,1751;0,0673094
724,1393;0,0667472
725,1036;0,0662382
726,0678;0,065761
727,0320;0,0652912
727,9963;0,0648046
728,9605;0,0642838
729,9247;0,0637285
730,8890;0,0631601
731,8532;0,0626151
732,8174;0,0621291
733,7817;0,0617193
734,7459;0,0613787
735,7101;0,0610848
736,6744;0,0608149
737,6386;0,0605562
738,6028;0,0603042
739,5671;0,0600543
740,5313;0,0597957
741,4955;0,0595157
742,4598;0,0592101
743,4240;0,0588899
744,3882;0,0585771
745,3525;0,0582912
746,3167;0,0580359
747,2809;0,057796
748,2452;0,0575467
749,2094;0,0572683
750,1736;0,056957
751,1379;0,0566242
752,1021;0,0562872
753,0663;0,0559565
754,0306;0,0556314
754,9948;0,0553039
755,9590;0,0549702
756,9233;0,0546373
757,8875;0,0543223
758,8517;0,0540419
759,8160;0,0538002
760,7802;0,053584
761,7444;0,0533699
762,7087;0,0531379
763,6729;0,0528844
764,6371;0,0526235
765,6014;0,0523773
766,5656;0,0521615
767,5298;0,051975
768,4941;0,0518009
769,4583;0,0516169
770,4225;0,0514082
771,3868;0,0511755
772,3510;0,050933
773,3152;0,0507005
774,2795;0,0504925
775,2437;0,0503124
776,2079;0,0501519
777,1722;0,0499963
778,1364;0,0498312
779,1006;0,0496486
780,0649;0,049448
781,0291;0,0492347
781,9933;0,049015
782,9576;0,0487917
783,9218;0,0485627
784,8860;0,0483234
785,8503;0,0480711
786,8145;0,0478097
787,7787;0,0475503
788,7430;0,0473083
789,7072;0,0470968
790,6714;0,0469213
791,6357;0,0467788
792,5999;0,046661
793,5641;0,0465596
794,5284;0,0464691
795,4926;0,0463858
796,4568;0,0463036
797,4211;0,0462118
798,3853;0,0460974
799,3495;0,0459504
800,3138;0,0457709
801,2780;0,0455701
802,2422;0,0453665
803,2065;0,0451784
804,1707;0,0450182
805,1349;0,0448902
806,0992;0,0447924
807,0634;0,0447188
808,0276;0,0446609
808,9919;0,0446072
809,9561;0,0445452
810,9203;0,0444646
811,8846;0,0443627
812,8488;0,0442465
813,8130;0,0441307
814,7773;0,044031
815,7415;0,0439576
816,7057;0,043912
817,6700;0,04389
818,6342;0,0438857
819,5984;0,0438948
820,5627;0,043914
821,5269;0,0439377
822,4911;0,0439571
823,4554;0,0439618
824,4196;0,0439441
825,3839;0,0439029
826,3481;0,0438434
827,3123;0,0437741
828,2766;0,0437028
829,2408;0,0436349
830,2050;0,0435738
831,1693;0,0435207
832,1335;0,0434737
833,0977;0,0434255
834,0620;0,0433636
835,0262;0,0432743
835,9904;0,0431498
836,9547;0,0429929
837,9189;0,0428162
838,8831;0,0426353
839,8474;0,0424608
840,8116;0,0422948
841,7758;0,0421347
842,7401;0,0419803
843,7043;0,0418382
844,6685;0,0417197
845,6328;0,0416326
846,5970;0,0415747
847,5612;0,0415329
848,5255;0,0414904
849,4897;0,0414359
850,4539;0,0413694
851,4182;0,0412997
852,3824;0,041238
853,3466;0,0411908
854,3109;0,0411591
855,2751;0,0411421
856,2393;0,0411415
857,2036;0,0411619
858,1678;0,041207
859,1320;0,0412734
860,0963;0,041349
861,0605;0,0414186
862,0247;0,0414728
862,9890;0,041517
863,9532;0,0415715
864,9174;0,0416643
865,8817;0,0418184
866,8459;0,0420418
867,8101;0,0423251
868,7744;0,0426479
869,7386;0,0429881
870,7028;0,0433288
871,6671;0,043659
872,6313;0,0439685
873,5955;0,0442425
874,5598;0,0444607
875,5240;0,0446036
876,4882;0,0446621
877,4525;0,0446465
878,4167;0,0445884
879,3809;0,0445344
880,3452;0,0445325
881,3094;0,0446189
882,2736;0,044809
883,2379;0,0450984
884,2021;0,0454708
885,1663;0,0459092
886,1306;0,0464025
887,0948;0,0469468
888,0590;0,0475391
889,0233;0,0481701
889,9875;0,04882
890,9517;0,0494598
891,9160;0,0500575
892,8802;0,0505863
893,8444;0,0510306
894,8087;0,0513883
895,7729;0,0516666
896,7371;0,0518735
897,7014;0,0520092
898,6656;0,0520616
899,6298;0,052011
900,5941;0,0518428
901,5583;0,0515605
902,5225;0,0511924
903,4868;0,0507852
904,4510;0,050388
905,4152;0,0500348
906,3795;0,0497365
907,3437;0,0494846
908,3079;0,0492636
909,2722;0,0490633
910,2364;0,0488844
911,2007;0,0487379
912,1649;0,0486384
913,1292;0,0485995
914,0934;0,0486286
915,0576;0,0487244
916,0219;0,048876
916,9861;0,0490641
917,9503;0,0492677
918,9146;0,0494717
919,8788;0,0496728
920,8430;0,0498781
921,8073;0,0500975
922,7715;0,0503336
923,7357;0,0505774
924,7000;0,0508115
925,6642;0,0510191
926,6284;0,0511921
927,5927;0,0513323
928,5569;0,0514478
929,5211;0,051548
930,4854;0,0516416
931,4496;0,051738
932,4138;0,0518494
933,3781;0,0519889
934,3423;0,0521659
935,3065;0,0523819
936,2708;0,0526317
937,2350;0,0529083
938,1992;0,0532103
939,1635;0,0535442
940,1277;0,0539211
941,0919;0,0543504
942,0562;0,0548353
943,0204;0,0553732
943,9846;0,0559606
944,9489;0,0565975
945,9131;0,0572892
946,8773;0,0580431
947,8416;0,0588651
948,8058;0,0597562
949,7700;0,0607129
950,7343;0,0617285
951,6985;0,0627958
952,6627;0,063908
953,6270;0,0650592
954,5912;0,0662456
955,5554;0,0674651
956,5197;0,0687177
957,4839;0,0700051
958,4481;0,0713289
959,4124;0,0726892
960,3766;0,074083
961,3408;0,0755032
962,3051;0,0769395
963,2693;0,0783816
964,2335;0,0798236
965,1978;0,0812673
966,1620;0,0827222
967,1262;0,0842021
968,0905;0,0857202
969,0547;0,0872862
970,0189;0,0889086
970,9832;0,0906008
971,9474;0,0923855
972,9116;0,0942934
973,8759;0,0963549
974,8401;0,0985892
975,8043;0,100995
976,7686;0,10355
977,7328;0,106212
978,6970;0,108927
979,6613;0,111633
980,6255;0,114267
981,5897;0,11676
982,5540;0,119054
983,5182;0,121102
984,4824;0,122883
985,4467;0,124402
986,4109;0,125691
987,3751;0,126799
988,3394;0,127778
989,3036;0,128675
990,2678;0,12952
991,2321;0,130326
992,1963;0,131091
993,1605;0,131804
994,1248;0,132455
995,0890;0,133043
996,0532;0,133571
997,0175;0,134053
997,9817;0,134499
998,9459;0,13492
999,9102;0,135321
1000,8744;0,135715
1001,8386;0,136118
1002,8029;0,136558
1003,7671;0,137066
1004,7313;0,137672
1005,6956;0,138402
1006,6598;0,139267
1007,6240;0,140271
1008,5883;0,14141
1009,5525;0,142667
1010,5167;0,144014
1011,4810;0,145411
1012,4452;0,146815
1013,4094;0,148184
1014,3737;0,149491
1015,3379;0,150728
1016,3021;0,151901
1017,2664;0,15302
1018,2306;0,154088
1019,1948;0,1551
1020,1591;0,156043
1021,1233;0,156906
1022,0875;0,15769
1023,0518;0,158406
1024,0160;0,159076
1024,9802;0,15972
1025,9445;0,16035
1026,9087;0,160963
1027,8729;0,161536
1028,8372;0,162026
1029,8014;0,162377
1030,7656;0,16252
1031,7299;0,162386
1032,6941;0,161925
1033,6583;0,161122
1034,6226;0,160005
1035,5868;0,158647
1036,5510;0,157157
1037,5153;0,155652
1038,4795;0,154241
1039,4437;0,153004
1040,4080;0,151994
1041,3722;0,151232
1042,3364;0,150715
1043,3007;0,150416
1044,2649;0,150287
1045,2291;0,150269
1046,1934;0,150298
1047,1576;0,150316
1048,1218;0,150275
1049,0861;0,15014
1050,0503;0,149884
1051,0145;0,149487
1051,9788;0,148933
1052,9430;0,14822
1053,9072;0,147349
1054,8715;0,146326
1055,8357;0,145144
1056,7999;0,143782
1057,7642;0,142204
1058,7284;0,140372
1059,6926;0,13827
1060,6569;0,135917
1061,6211;0,133378
1062,5853;0,130751
1063,5496;0,128148
1064,5138;0,125673
1065,4780;0,123397
1066,4423;0,121354
1067,4065;0,119538
1068,3707;0,117915
1069,3350;0,116434
1070,2992;0,115043
1071,2634;0,113697
1072,2277;0,112357
1073,1919;0,110995
1074,1561;0,109586
1075,1204;0,108117
1076,0846;0,106584
1077,0488;0,105008
1078,0131;0,103425
1078,9773;0,101887
1079,9415;0,100443
1080,9058;0,0991273
1081,8700;0,0979555
1082,8342;0,0969234
1083,7985;0,0960187
1084,7627;0,0952293
1085,7269;0,0945473
1086,6912;0,0939674
1087,6554;0,0934838
1088,6196;0,0930892
1089,5839;0,0927773
1090,5481;0,0925461
1091,5123;0,0923978
1092,4766;0,0923353
1093,4408;0,0923561
1094,4050;0,0924501
1095,3693;0,0926017
1096,3335;0,0927942
1097,2977;0,0930139
1098,2620;0,0932486
1099,2262;0,0934841
1100,1904;0,0936998
1101,1547;0,0938707
1102,1189;0,0939732
1103,0831;0,0939927
1104,0474;0,093928
1105,0116;0,0937893
1105,9758;0,0935916
1106,9401;0,0933463
1107,9043;0,0930534
1108,8685;0,092697
1109,8328;0,0922448
1110,7970;0,0916529
1111,7612;0,0908781
1112,7255;0,0898948
1113,6897;0,0887124
1114,6539;0,087382
1115,6182;0,0859894
1116,5824;0,0846312
1117,5466;0,0833856
1118,5109;0,0822891
1119,4751;0,0813278
1120,4393;0,0804466
1121,4036;0,0795704
1122,3678;0,0786271
1123,3320;0,0775649
1124,2963;0,0763602
1125,2605;0,0750163
1126,2247;0,0735576
1127,1890;0,0720201
1128,1532;0,0704424
1129,1174;0,0688584
1130,0817;0,0672927
1131,0459;0,0657606
1132,0101;0,0642733
1132,9744;0,0628438
1133,9386;0,0614928
1134,9028;0,0602497
1135,8671;0,0591489
1136,8313;0,058223
1137,7955;0,0574966
1138,7598;0,0569809
1139,7240;0,0566721
1140,6882;0,056551
1141,6525;0,0565856
1142,6167;0,0567367
1143,5809;0,056965
1144,5452;0,0572406
1145,5094;0,057549
1146,4736;0,0578916
1147,4379;0,0582793
1148,4021;0,0587223
1149,3663;0,0592197
1150,3306;0,059756
1151,2948;0,0603038
1152,2590;0,0608323
1153,2233;0,0613141
1154,1875;0,0617289
1155,1517;0,0620601
1156,1160;0,0622881
1157,0802;0,0623842
1158,0444;0,0623072
1159,0087;0,0620064
1159,9729;0,061429
1160,9371;0,0605307
1161,9014;0,0592872
1162,8656;0,0577025
1163,8298;0,0558126
1164,7941;0,0536831
1165,7583;0,0514007
1166,7225;0,0490605
1167,6868;0,0467534
1168,6510;0,0445549
1169,6152;0,0425178
1170,5795;0,0406718
1171,5437;0,0390266
1172,5079;0,0375787
1173,4722;0,0363167
1174,4364;0,0352247
1175,4006;0,034283
1176,3649;0,033469
1177,3291;0,0327596
1178,2933;0,0321355
1179,2576;0,0315848
1180,2218;0,0311035
1181,1860;0,0306926
1182,1503;0,0303531
1183,1145;0,030083
1184,0787;0,0298773
1185,0430;0,02973
1186,0072;0,0296376
1186,9714;0,0296008
1187,9357;0,029623
1188,8999;0,0297094
1189,8641;0,0298641
1190,8284;0,0300893
1191,7926;0,0303841
1192,7568;0,0307446
1193,7211;0,0311643
1194,6853;0,0316339
1195,6495;0,0321426
1196,6138;0,032678
1197,5780;0,0332259
1198,5422;0,0337722
1199,5065;0,0343019
1200,4707;0,0348125
1201,4349;0,035298
1202,3992;0,0357583
1203,3634;0,0361928
1204,3276;0,036598
1205,2919;0,0369682
1206,2561;0,0372995
1207,2203;0,0375954
1208,1846;0,0378694
1209,1488;0,0381434
1210,1130;0,0384431
1211,0773;0,0387913
1212,0415;0,0392034
1213,0057;0,0396849
1213,9700;0,0402329
1214,9342;0,0408376
1215,8984;0,0414852
1216,8627;0,0421596
1217,8269;0,0428445
1218,7911;0,0435256
1219,7554;0,0441916
1220,7196;0,0448358
1221,6838;0,0454554
1222,6481;0,0460499
1223,6123;0,0466195
1224,5765;0,0471636
1225,5408;0,0476811
1226,5050;0,048171
1227,4692;0,0486332
1228,4335;0,049069
1229,3977;0,0494786
1230,3619;0,0498585
1231,3262;0,0502004
1232,2904;0,0504919
1233,2546;0,0507217
1234,2189;0,0508846
1235,1831;0,0509855
1236,1473;0,0510391
1237,1116;0,0510645
1238,0758;0,0510786
1239,0400;0,0510896
1240,0043;0,0510953
1240,9685;0,0510856
1241,9327;0,0510475
1242,8970;0,0509702
1243,8612;0,0508485
1244,8254;0,0506826
1245,7897;0,0504772
1246,7539;0,0502391
1247,7181;0,0499754
1248,6824;0,0496924
1249,6466;0,0493951
1250,6108;0,0490878
1251,5751;0,0487744
1252,5393;0,048459
1253,5035;0,0481459
1254,4678;0,047838
1255,4320;0,0475356
1256,3962;0,0472354
1257,3605;0,0469311
1258,3247;0,0466157
1259,2889;0,0462836
1260,2532;0,0459318
1261,2174;0,0455601
1262,1816;0,0451698
1263,1459;0,0447629
1264,1101;0,044341
1265,0743;0,0439055
1266,0386;0,0434576
1267,0028;0,0429985
1267,9670;0,0425301
1268,9313;0,0420548
1269,8955;0,0415757
1270,8597;0,0410954
1271,8240;0,0406147
1272,7882;0,0401328
1273,7524;0,0396493
1274,7167;0,0391672
1275,6809;0,0386936
1276,6451;0,0382371
1277,6094;0,0378033
1278,5736;0,0373902
1279,5378;0,0369885
1280,5021;0,0365866
1281,4663;0,0361778
1282,4305;0,0357648
1283,3948;0,0353583
1284,3590;0,0349719
1285,3232;0,0346169
1286,2875;0,0343005
1287,2517;0,0340266
1288,2159;0,0337975
1289,1802;0,0336148
1290,1444;0,0334779
1291,1086;0,0333844
1292,0729;0,0333313
1293,0371;0,0333186
1294,0013;0,0333509
1294,9656;0,0334366
1295,9298;0,0335843
1296,8940;0,0337974
1297,8583;0,0340723
1298,8225;0,0343988
1299,7867;0,034764
1300,7510;0,0351566
1301,7152;0,0355707
1302,6794;0,036007
1303,6437;0,0364715
1304,6079;0,0369714
1305,5721;0,0375092
1306,5364;0,038079
1307,5006;0,0386668
1308,4648;0,0392567
1309,4291;0,0398366
1310,3933;0,0404011
1311,3575;0,040947
1312,3218;0,0414659
1313,2860;0,041939
1314,2502;0,0423382
1315,2145;0,0426337
1316,1787;0,0428037
1317,1429;0,0428422
1318,1072;0,0427629
1319,0714;0,042597
1320,0356;0,042384
1320,9999;0,0421588
1321,9641;0,0419443
1322,9283;0,0417503
1323,8926;0,0415795
1324,8568;0,0414332
1325,8210;0,0413138
1326,7853;0,0412233
1327,7495;0,0411615
1328,7137;0,0411237
1329,6780;0,0411007
1330,6422;0,0410792
1331,6064;0,0410435
1332,5707;0,0409768
1333,5349;0,0408625
1334,4991;0,0406849
1335,4634;0,040429
1336,4276;0,0400844
1337,3918;0,039654
1338,3561;0,0391652
1339,3203;0,0386697
1340,2845;0,0382213
1341,2488;0,0378476
1342,2130;0,0375423
1343,1772;0,0372826
1344,1415;0,0370497
1345,1057;0,0368395
1346,0699;0,0366631
1347,0342;0,03654
1347,9984;0,0364884
1348,9626;0,0365177
1349,9269;0,0366249
1350,8911;0,0367962
1351,8553;0,0370129
