TITLE;
DATA TYPE;INFRARED SPECTRUM
ORIGIN;JASCO
OWNER;
DATE;25/03/10
TIME;20:58:51
SPECTROMETER/DATA SYSTEM;
LOCALE;9226
RESOLUTION;
DELTAX;0,964233
XUNITS;1/CM
YUNITS;ABSORBANCE
FIRSTX;  399,1927
LASTX; 4000,6047
NPOINTS;    3736
FIRSTY;     0,18913
MAXY;     0,25464
MINY;     0,01343
XYDATA
399,1927;0,189129
400,1569;0,190039
401,1211;0,191446
402,0854;0,192626
403,0496;0,193356
404,0138;0,193712
404,9781;0,193865
405,9423;0,193931
406,9065;0,193896
407,8708;0,193665
408,8350;0,193179
409,7992;0,192537
410,7635;0,192
411,7277;0,191871
412,6919;0,192313
413,6562;0,193258
414,6204;0,194475
415,5846;0,195677
416,5489;0,196588
417,5131;0,197024
418,4773;0,19707
419,4416;0,197164
420,4058;0,197704
421,3700;0,198658
422,3343;0,199718
423,2985;0,200591
424,2627;0,201108
425,2270;0,201267
426,1912;0,201211
427,1554;0,201136
428,1197;0,201165
429,0839;0,201281
430,0481;0,201364
431,0124;0,201286
431,9766;0,20101
432,9408;0,200636
433,9051;0,200355
434,8693;0,200346
435,8335;0,200653
436,7978;0,20115
437,7620;0,2016
438,7262;0,20178
439,6905;0,201566
440,6547;0,200952
441,6189;0,200036
442,5832;0,198983
443,5474;0,19798
444,5116;0,197188
445,4759;0,19671
446,4401;0,196582
447,4043;0,196775
448,3686;0,197186
449,3328;0,197645
450,2970;0,197948
451,2613;0,197948
452,2255;0,197618
453,1897;0,19707
454,1540;0,196473
455,1182;0,195964
456,0824;0,195593
457,0467;0,195328
458,0109;0,195109
458,9751;0,194906
459,9394;0,194732
460,9036;0,1946
461,8678;0,194489
462,8321;0,19435
463,7963;0,194144
464,7605;0,193866
465,7248;0,193547
466,6890;0,193225
467,6532;0,192897
468,6175;0,192516
469,5817;0,192028
470,5459;0,191439
471,5102;0,190857
472,4744;0,190454
473,4386;0,190346
474,4029;0,190494
475,3671;0,190743
476,3313;0,190944
477,2956;0,191054
478,2598;0,191143
479,2240;0,191341
480,1883;0,191739
481,1525;0,192321
482,1167;0,192952
483,0810;0,193456
484,0452;0,193714
485,0094;0,193741
485,9737;0,19366
486,9379;0,193602
487,9021;0,193631
488,8664;0,193733
489,8306;0,193867
490,7948;0,194018
491,7591;0,194216
492,7233;0,194501
493,6875;0,194877
494,6518;0,195288
495,6160;0,195648
496,5802;0,195894
497,5445;0,196018
498,5087;0,19606
499,4729;0,196086
500,4372;0,196155
501,4014;0,196308
502,3656;0,196567
503,3299;0,196945
504,2941;0,197443
505,2583;0,198035
506,2226;0,198652
507,1868;0,199196
508,1510;0,199581
509,1153;0,199786
510,0795;0,19988
511,0437;0,199985
512,0080;0,200206
512,9722;0,200573
513,9365;0,201038
514,9007;0,201519
515,8649;0,201963
516,8292;0,20238
517,7934;0,202829
518,7576;0,203337
519,7219;0,203851
520,6861;0,204247
521,6503;0,204415
522,6146;0,204323
523,5788;0,204042
524,5430;0,203729
525,5073;0,203557
526,4715;0,203624
527,4357;0,203884
528,4000;0,204189
529,3642;0,204381
530,3284;0,204378
531,2927;0,204183
532,2569;0,203862
533,2211;0,203497
534,1854;0,203144
535,1496;0,202819
536,1138;0,202506
537,0781;0,202193
538,0423;0,201887
539,0065;0,201618
539,9708;0,201427
540,9350;0,201341
541,8992;0,201364
542,8635;0,201474
543,8277;0,201624
544,7919;0,201764
545,7562;0,201849
546,7204;0,201868
547,6846;0,201847
548,6489;0,201852
549,6131;0,201959
550,5773;0,202223
551,5416;0,202654
552,5058;0,203215
553,4700;0,203839
554,4343;0,204457
555,3985;0,20501
556,3627;0,205454
557,3270;0,205744
558,2912;0,205825
559,2554;0,205644
560,2197;0,205174
561,1839;0,204436
562,1481;0,203502
563,1124;0,202476
564,0766;0,201457
565,0408;0,200511
566,0051;0,199675
566,9693;0,19897
567,9335;0,198415
568,8978;0,198017
569,8620;0,197759
570,8262;0,197596
571,7905;0,197465
572,7547;0,197307
573,7189;0,197094
574,6832;0,196825
575,6474;0,19653
576,6116;0,196253
577,5759;0,196033
578,5401;0,195894
579,5043;0,195834
580,4686;0,195819
581,4328;0,195794
582,3970;0,195701
583,3613;0,195516
584,3255;0,195266
585,2897;0,195023
586,2540;0,194864
587,2182;0,194824
588,1824;0,194876
589,1467;0,194941
590,1109;0,19493
591,0751;0,194785
592,0394;0,19451
593,0036;0,194156
593,9678;0,193783
594,9321;0,193423
595,8963;0,193066
596,8605;0,192681
597,8248;0,192237
598,7890;0,191728
599,7532;0,191176
600,7175;0,19062
601,6817;0,190097
602,6459;0,189629
603,6102;0,189216
604,5744;0,188844
605,5386;0,188495
606,5029;0,188145
607,4671;0,187772
608,4313;0,187347
609,3956;0,186844
610,3598;0,186245
611,3240;0,185558
612,2883;0,184813
613,2525;0,184058
614,2167;0,183327
615,1810;0,182623
616,1452;0,181904
617,1094;0,181104
618,0737;0,180171
619,0379;0,179097
620,0021;0,177923
620,9664;0,17671
621,9306;0,175515
622,8948;0,174371
623,8591;0,173292
624,8233;0,172256
625,7875;0,171306
626,7518;0,170433
627,7160;0,169627
628,6802;0,168873
629,6445;0,168162
630,6087;0,167489
631,5729;0,166857
632,5372;0,166266
633,5014;0,165708
634,4656;0,165167
635,4299;0,164626
636,3941;0,164083
637,3583;0,163554
638,3226;0,163069
639,2868;0,162652
640,2510;0,162303
641,2153;0,161994
642,1795;0,161679
643,1437;0,161315
644,1080;0,160884
645,0722;0,1604
646,0364;0,159893
647,0007;0,159404
647,9649;0,158963
648,9291;0,158589
649,8934;0,158287
650,8576;0,158047
651,8218;0,157859
652,7861;0,157713
653,7503;0,157609
654,7145;0,157548
655,6788;0,157526
656,6430;0,157525
657,6072;0,157518
658,5715;0,157486
659,5357;0,157423
660,4999;0,157327
661,4642;0,157168
662,4284;0,156863
663,3926;0,156276
664,3569;0,155277
665,3211;0,153821
666,2853;0,152029
667,2496;0,150195
668,2138;0,148677
669,1780;0,147765
670,1423;0,147491
671,1065;0,147491
672,0707;0,147272
673,0350;0,146535
673,9992;0,145247
674,9634;0,143576
675,9277;0,141779
676,8919;0,140071
677,8561;0,13854
678,8204;0,137169
679,7846;0,135911
680,7488;0,134753
681,7131;0,133713
682,6773;0,132804
683,6415;0,132024
684,6058;0,131356
685,5700;0,130783
686,5342;0,130293
687,4985;0,129869
688,4627;0,12949
689,4269;0,129127
690,3912;0,128765
691,3554;0,128402
692,3196;0,128042
693,2839;0,127688
694,2481;0,12734
695,2123;0,127003
696,1766;0,126686
697,1408;0,126394
698,1050;0,126123
699,0693;0,125854
700,0335;0,125565
700,9977;0,12524
701,9620;0,124876
702,9262;0,124479
703,8904;0,124048
704,8547;0,123594
705,8189;0,123124
706,7831;0,122643
707,7474;0,122153
708,7116;0,121645
709,6758;0,121108
710,6401;0,120536
711,6043;0,11994
712,5685;0,119347
713,5328;0,118784
714,4970;0,118262
715,4612;0,117267
716,4255;0,116839
717,3897;0,116366
718,3539;0,115787
719,3182;0,115065
720,2824;0,11421
721,2466;0,113276
722,2109;0,112331
723,1751;0,111432
724,1393;0,110601
725,1036;0,109836
726,0678;0,10912
727,0320;0,108433
727,9963;0,107756
728,9605;0,107076
729,9247;0,106386
730,8890;0,105685
731,8532;0,104985
732,8174;0,104303
733,7817;0,10366
734,7459;0,103072
735,7101;0,102548
736,6744;0,102083
737,6386;0,101668
738,6028;0,101283
739,5671;0,100902
740,5313;0,100502
741,4955;0,100062
742,4598;0,0995773
743,4240;0,0990591
744,3882;0,0985317
745,3525;0,0980214
746,3167;0,0975424
747,2809;0,0970899
748,2452;0,0966434
749,2094;0,0961788
750,1736;0,0956828
751,1379;0,0951603
752,1021;0,0946302
753,0663;0,0941128
754,0306;0,0936183
754,9948;0,0931431
755,9590;0,0926769
756,9233;0,0922133
757,8875;0,0917558
758,8517;0,0913156
759,8160;0,0909015
760,7802;0,0905124
761,7444;0,0901354
762,7087;0,0897527
763,6729;0,0893508
764,6371;0,0889273
765,6014;0,088491
766,5656;0,0880562
767,5298;0,0876364
768,4941;0,0872382
769,4583;0,0868597
770,4225;0,0864922
771,3868;0,086125
772,3510;0,0857514
773,3152;0,0853725
774,2795;0,0849989
775,2437;0,084646
776,2079;0,0843275
777,1722;0,0840482
778,1364;0,0838009
779,1006;0,0835684
780,0649;0,0833289
781,0291;0,0830617
781,9933;0,0827522
782,9576;0,0823943
783,9218;0,0819931
784,8860;0,0815654
785,8503;0,0811388
786,8145;0,0807447
787,7787;0,0804079
788,7430;0,0801364
789,7072;0,0799172
790,6714;0,0797238
791,6357;0,0795303
792,5999;0,0793252
793,5641;0,0791157
794,5284;0,0789195
795,4926;0,0787495
796,4568;0,0786035
797,4211;0,0784647
798,3853;0,0783144
799,3495;0,0781448
800,3138;0,0779641
801,2780;0,0777897
802,2422;0,0776341
803,2065;0,0774949
804,1707;0,0773562
805,1349;0,077199
806,0992;0,0770157
807,0634;0,0768166
808,0276;0,0766251
808,9919;0,0764647
809,9561;0,0763441
810,9203;0,0762511
811,8846;0,076158
812,8488;0,0760359
813,8130;0,0758696
814,7773;0,0756645
815,7415;0,0754418
816,7057;0,0752264
817,6700;0,0750332
818,6342;0,0748627
819,5984;0,0747044
820,5627;0,0745466
821,5269;0,0743831
822,4911;0,074215
823,4554;0,0740464
824,4196;0,0738795
825,3839;0,0737122
826,3481;0,0735408
827,3123;0,0733636
828,2766;0,073183
829,2408;0,0730046
830,2050;0,0728333
831,1693;0,0726684
832,1335;0,0725011
833,0977;0,0723148
834,0620;0,07209
835,0262;0,0718123
835,9904;0,0714807
836,9547;0,0711116
837,9189;0,0707354
838,8831;0,0703849
839,8474;0,0700817
840,8116;0,0698268
841,7758;0,0696017
842,7401;0,0693793
843,7043;0,0691407
844,6685;0,0688863
845,6328;0,0686366
846,5970;0,0684218
847,5612;0,0682656
848,5255;0,0681722
849,4897;0,068124
850,4539;0,0680901
851,4182;0,0680415
852,3824;0,0679635
853,3466;0,0678592
854,3109;0,0677427
855,2751;0,067628
856,2393;0,0675212
857,2036;0,0674203
858,1678;0,067322
859,1320;0,0672287
860,0963;0,0671501
861,0605;0,0670977
862,0247;0,0670777
862,9890;0,0670868
863,9532;0,0671151
864,9174;0,0671534
865,8817;0,0671989
866,8459;0,0672565
867,8101;0,0673344
868,7744;0,0674384
869,7386;0,0675682
870,7028;0,0677175
871,6671;0,0678764
872,6313;0,0680336
873,5955;0,0681789
874,5598;0,0683048
875,5240;0,0684085
876,4882;0,0684937
877,4525;0,0685717
878,4167;0,0686593
879,3809;0,0687766
880,3452;0,0689444
881,3094;0,0691827
882,2736;0,0695095
883,2379;0,0699393
884,2021;0,0704808
885,1663;0,0711342
886,1306;0,0718901
887,0948;0,0727307
888,0590;0,073634
889,0233;0,0745778
889,9875;0,0755426
890,9517;0,0765101
891,9160;0,0774595
892,8802;0,0783626
893,8444;0,0791823
894,8087;0,0798741
895,7729;0,0803929
896,7371;0,0807001
897,7014;0,08077
898,6656;0,0805928
899,6298;0,080175
900,5941;0,0795391
901,5583;0,0787227
902,5225;0,0777774
903,4868;0,0767653
904,4510;0,0757511
905,4152;0,0747921
906,3795;0,0739305
907,3437;0,0731901
908,3079;0,0725791
909,2722;0,0720948
910,2364;0,0717279
911,2007;0,0714638
912,1649;0,0712831
913,1292;0,0711643
914,0934;0,0710896
915,0576;0,0710503
916,0219;0,0710495
916,9861;0,0710981
917,9503;0,0712067
918,9146;0,0713779
919,8788;0,0716034
920,8430;0,0718666
921,8073;0,0721483
922,7715;0,0724312
923,7357;0,0727029
924,7000;0,0729561
925,6642;0,0731892
926,6284;0,0734055
927,5927;0,073612
928,5569;0,0738165
929,5211;0,0740245
930,4854;0,0742382
931,4496;0,0744589
932,4138;0,0746904
933,3781;0,0749413
934,3423;0,0752233
935,3065;0,075547
936,2708;0,0759179
937,2350;0,0763366
938,1992;0,0768027
939,1635;0,0773201
940,1277;0,0778986
941,0919;0,0785516
942,0562;0,07929
943,0204;0,0801167
943,9846;0,0810262
944,9489;0,0820079
945,9131;0,083052
946,8773;0,0841547
947,8416;0,0853186
948,8058;0,0865511
949,7700;0,0878596
950,7343;0,0892477
951,6985;0,0907134
952,6627;0,092249
953,6270;0,0938442
954,5912;0,0954894
955,5554;0,0971797
956,5197;0,0989163
957,4839;0,100704
958,4481;0,102546
959,4124;0,104438
960,3766;0,106363
961,3408;0,108298
962,3051;0,110218
963,2693;0,112111
964,2335;0,113978
965,1978;0,115831
966,1620;0,117688
967,1262;0,119567
968,0905;0,121481
969,0547;0,123447
970,0189;0,125489
970,9832;0,127644
971,9474;0,129957
972,9116;0,132468
973,8759;0,13521
974,8401;0,138197
975,8043;0,141427
976,7686;0,144886
977,7328;0,148544
978,6970;0,152361
979,6613;0,156278
980,6255;0,160215
981,5897;0,164075
982,5540;0,167754
983,5182;0,171155
984,4824;0,17421
985,4467;0,176892
986,4109;0,179216
987,3751;0,181227
988,3394;0,182984
989,3036;0,184536
990,2678;0,185919
991,2321;0,187148
992,1963;0,188232
993,1605;0,189187
994,1248;0,19004
995,0890;0,190837
996,0532;0,191638
997,0175;0,192496
997,9817;0,19345
998,9459;0,194509
999,9102;0,195656
1000,8744;0,196861
1001,8386;0,198104
1002,8029;0,199387
1003,7671;0,200739
1004,7313;0,20221
1005,6956;0,203851
1006,6598;0,205704
1007,6240;0,207796
1008,5883;0,210135
1009,5525;0,212711
1010,5167;0,215496
1011,4810;0,218439
1012,4452;0,221475
1013,4094;0,224535
1014,3737;0,22755
1015,3379;0,230466
1016,3021;0,233238
1017,2664;0,235834
1018,2306;0,238226
1019,1948;0,240399
1020,1591;0,242353
1021,1233;0,244109
1022,0875;0,2457
1023,0518;0,247169
1024,0160;0,248548
1024,9802;0,249855
1025,9445;0,251083
1026,9087;0,252204
1027,8729;0,253177
1028,8372;0,25395
1029,8014;0,254462
1030,7656;0,254645
1031,7299;0,254426
1032,6941;0,253743
1033,6583;0,252562
1034,6226;0,250903
1035,5868;0,248852
1036,5510;0,246557
1037,5153;0,2442
1038,4795;0,241961
1039,4437;0,239978
1040,4080;0,238326
1041,3722;0,237019
1042,3364;0,236015
1043,3007;0,23524
1044,2649;0,234601
1045,2291;0,234
1046,1934;0,233345
1047,1576;0,232558
1048,1218;0,231587
1049,0861;0,230406
1050,0503;0,229007
1051,0145;0,227396
1051,9788;0,225586
1052,9430;0,223593
1053,9072;0,221437
1054,8715;0,21914
1055,8357;0,216709
1056,7999;0,214127
1057,7642;0,211343
1058,7284;0,208297
1059,6926;0,204947
1060,6569;0,201305
1061,6211;0,197453
1062,5853;0,193526
1063,5496;0,189674
1064,5138;0,186021
1065,4780;0,18264
1066,4423;0,179552
1067,4065;0,176743
1068,3707;0,174182
1069,3350;0,171837
1070,2992;0,169667
1071,2634;0,167628
1072,2277;0,165665
1073,1919;0,163724
1074,1561;0,161758
1075,1204;0,159738
1076,0846;0,157662
1077,0488;0,155549
1078,0131;0,153443
1078,9773;0,151398
1079,9415;0,149471
1080,9058;0,147711
1081,8700;0,14615
1082,8342;0,144793
1083,7985;0,143624
1084,7627;0,142612
1085,7269;0,141724
1086,6912;0,140932
1087,6554;0,140221
1088,6196;0,139585
1089,5839;0,139029
1090,5481;0,138554
1091,5123;0,138163
1092,4766;0,137856
1093,4408;0,13763
1094,4050;0,137484
1095,3693;0,137414
1096,3335;0,137415
1097,2977;0,13748
1098,2620;0,137597
1099,2262;0,137754
1100,1904;0,137933
1101,1547;0,138119
1102,1189;0,138288
1103,0831;0,138416
1104,0474;0,138474
1105,0116;0,138441
1105,9758;0,138304
1106,9401;0,138063
1107,9043;0,137722
1108,8685;0,137279
1109,8328;0,136712
1110,7970;0,135986
1111,7612;0,135063
1112,7255;0,133928
1113,6897;0,132608
1114,6539;0,131171
1115,6182;0,129711
1116,5824;0,128322
1117,5466;0,127063
1118,5109;0,125947
1119,4751;0,124935
1120,4393;0,123953
1121,4036;0,122909
1122,3678;0,12172
1123,3320;0,120324
1124,2963;0,118693
1125,2605;0,116829
1126,2247;0,114759
1127,1890;0,112526
1128,1532;0,11018
1129,1174;0,10777
1130,0817;0,105344
1131,0459;0,102947
1132,0101;0,100615
1132,9744;0,0983832
1133,9386;0,0962867
1134,9028;0,0943617
1135,8671;0,0926464
1136,8313;0,0911755
1137,7955;0,0899728
1138,7598;0,0890448
1139,7240;0,088378
1140,6882;0,0879425
1141,6525;0,0876997
1142,6167;0,0876107
1143,5809;0,0876434
1144,5452;0,0877766
1145,5094;0,0880001
1146,4736;0,0883121
1147,4379;0,0887151
1148,4021;0,0892113
1149,3663;0,0897973
1150,3306;0,0904608
1151,2948;0,0911781
1152,2590;0,0919146
1153,2233;0,092627
1154,1875;0,093268
1155,1517;0,0937894
1156,1160;0,0941434
1157,0802;0,0942802
1158,0444;0,0941448
1159,0087;0,0936757
1159,9729;0,0928105
1160,9371;0,0914983
1161,9014;0,0897159
1162,8656;0,08748
1163,8298;0,0848507
1164,7941;0,0819238
1165,7583;0,0788153
1166,7225;0,0756448
1167,6868;0,0725218
1168,6510;0,0695365
1169,6152;0,066755
1170,5795;0,0642181
1171,5437;0,0619426
1172,5079;0,059926
1173,4722;0,058153
1174,4364;0,0566026
1175,4006;0,0552539
1176,3649;0,05409
1177,3291;0,0530986
1178,2933;0,0522696
1179,2576;0,0515914
1180,2218;0,0510475
1181,1860;0,050616
1182,1503;0,0502737
1183,1145;0,0500018
1184,0787;0,0497911
1185,0430;0,0496426
1186,0072;0,0495638
1186,9714;0,0495633
1187,9357;0,0496462
1188,8999;0,0498137
1189,8641;0,0500649
1190,8284;0,0503987
1191,7926;0,050815
1192,7568;0,0513138
1193,7211;0,0518936
1194,6853;0,0525506
1195,6495;0,0532775
1196,6138;0,0540635
1197,5780;0,054893
1198,5422;0,0557476
1199,5065;0,0565771
1200,4707;0,0574388
1201,4349;0,0582917
1202,3992;0,0591373
1203,3634;0,0599768
1204,3276;0,0608063
1205,2919;0,0616164
1206,2561;0,0623984
1207,2203;0,0631534
1208,1846;0,0638986
1209,1488;0,0646644
1210,1130;0,0654846
1211,0773;0,0663827
1212,0415;0,0673637
1213,0057;0,0684143
1213,9700;0,0695108
1214,9342;0,0706295
1215,8984;0,0717521
1216,8627;0,0728657
1217,8269;0,0739584
1218,7911;0,0750178
1219,7554;0,0760311
1220,7196;0,0769887
1221,6838;0,0778857
1222,6481;0,0787215
1223,6123;0,0794964
1224,5765;0,0802099
1225,5408;0,080861
1226,5050;0,0814511
1227,4692;0,0819858
1228,4335;0,0824741
1229,3977;0,0829239
1230,3619;0,083338
1231,3262;0,0837121
1232,2904;0,0840386
1233,2546;0,0843118
1234,2189;0,0845337
1235,1831;0,0847138
1236,1473;0,0848654
1237,1116;0,0849989
1238,0758;0,0851169
1239,0400;0,0852134
1240,0043;0,0852775
1240,9685;0,0852986
1241,9327;0,0852703
1242,8970;0,0851914
1243,8612;0,0850639
1244,8254;0,0848907
1245,7897;0,0846732
1246,7539;0,0844124
1247,7181;0,0841105
1248,6824;0,0837732
1249,6466;0,0834098
1250,6108;0,0830324
1251,5751;0,0826529
1252,5393;0,0822808
1253,5035;0,0819206
1254,4678;0,081571
1255,4320;0,0812251
1256,3962;0,0808722
1257,3605;0,0805006
1258,3247;0,0801001
1259,2889;0,0796639
1260,2532;0,0791891
1261,2174;0,0786748
1262,1816;0,0781204
1263,1459;0,0775235
1264,1101;0,0768803
1265,0743;0,076186
1266,0386;0,0754355
1267,0028;0,0746243
1267,9670;0,0737502
1268,9313;0,0728159
1269,8955;0,0718309
1270,8597;0,0708117
1271,8240;0,0697781
1272,7882;0,0687487
1273,7524;0,0677359
1274,7167;0,0667467
1275,6809;0,065784
1276,6451;0,0648496
1277,6094;0,063944
1278,5736;0,063065
1279,5378;0,0622084
1280,5021;0,0613693
1281,4663;0,0605472
1282,4305;0,0597473
1283,3948;0,0589804
1284,3590;0,0582596
1285,3232;0,0575965
1286,2875;0,0570004
1287,2517;0,0564778
1288,2159;0,0560327
1289,1802;0,0556658
1290,1444;0,0553751
1291,1086;0,0551568
1292,0729;0,0550086
1293,0371;0,0549312
1294,0013;0,0549283
1294,9656;0,0550035
1295,9298;0,0551569
1296,8940;0,0553846
1297,8583;0,0556809
1298,8225;0,0560414
1299,7867;0,0564638
1300,7510;0,056946
1301,7152;0,057484
1302,6794;0,0580712
1303,6437;0,0587008
1304,6079;0,0593691
1305,5721;0,0600747
1306,5364;0,0608163
1307,5006;0,0615889
1308,4648;0,062384
1309,4291;0,0631906
1310,3933;0,0639976
1311,3575;0,0647919
1312,3218;0,0655558
1313,2860;0,0662654
1314,2502;0,066892
1315,2145;0,0674065
1316,1787;0,0677845
1317,1429;0,0680113
1318,1072;0,0680881
1319,0714;0,0680366
1320,0356;0,0678953
1320,9999;0,0677079
1321,9641;0,0675087
1322,9283;0,0673163
1323,8926;0,0671364
1324,8568;0,0669683
1325,8210;0,066809
1326,7853;0,0666544
1327,7495;0,0664986
1328,7137;0,0663333
1329,6780;0,0661491
1330,6422;0,0659375
1331,6064;0,0656924
1332,5707;0,0654091
1333,5349;0,0650807
1334,4991;0,0646936
1335,4634;0,0642262
1336,4276;0,0636553
1337,3918;0,0629731
1338,3561;0,0622109
1339,3203;0,0614462
1340,2845;0,0607689
1341,2488;0,0602273
1342,2130;0,0598106
1343,1772;0,059476
1344,1415;0,0591853
1345,1057;0,0589234
1346,0699;0,0586994
1347,0342;0,0585373
1347,9984;0,0584629
1348,9626;0,0584916
1349,9269;0,0586226
1350,8911;0,0588404
1351,8553;0,0591221
1352,8196;0,0594468
1353,7838;0,0598046
1354,7480;0,0601982
1355,7123;0,0606364
1356,6765;0,0611231
1357,6407;0,0616512
1358,6050;0,0622056
1359,5692;0,0627698
