TITLE;
DATA TYPE;INFRARED SPECTRUM
ORIGIN;JASCO
OWNER;
DATE;25/03/10
TIME;20:50:54
SPECTROMETER/DATA SYSTEM;
LOCALE;9226
RESOLUTION;
DELTAX;0,964233
XUNITS;1/CM
YUNITS;ABSORBANCE
FIRSTX;  399,1927
LASTX; 4000,6047
NPOINTS;    3736
FIRSTY;     0,19727
MAXY;     0,24154
MINY;     0,01136
XYDATA
399,1927;0,197274
400,1569;0,199332
401,1211;0,20158
402,0854;0,203244
403,0496;0,203978
404,0138;0,203748
404,9781;0,202744
405,9423;0,201318
406,9065;0,199883
407,8708;0,198782
408,8350;0,198229
409,7992;0,198317
410,7635;0,199028
411,7277;0,200198
412,6919;0,201517
413,6562;0,202626
414,6204;0,203242
415,5846;0,203232
416,5489;0,202658
417,5131;0,201876
418,4773;0,201522
419,4416;0,202053
420,4058;0,203216
421,3700;0,204402
422,3343;0,205271
423,2985;0,205823
424,2627;0,206192
425,2270;0,206482
426,1912;0,206694
427,1554;0,206757
428,1197;0,206612
429,0839;0,206295
430,0481;0,205935
431,0124;0,205691
431,9766;0,205654
432,9408;0,205781
433,9051;0,205925
434,8693;0,205922
435,8335;0,205696
436,7978;0,205286
437,7620;0,204789
438,7262;0,20428
439,6905;0,203779
440,6547;0,203267
441,6189;0,202743
442,5832;0,202249
443,5474;0,201859
444,5116;0,201636
445,4759;0,201583
446,4401;0,201647
447,4043;0,201741
448,3686;0,201777
449,3328;0,201686
450,2970;0,201449
451,2613;0,201107
452,2255;0,20075
453,1897;0,200473
454,1540;0,200321
455,1182;0,200248
456,0824;0,200134
457,0467;0,199834
458,0109;0,199288
458,9751;0,198586
459,9394;0,197918
460,9036;0,197439
461,8678;0,197195
462,8321;0,197132
463,7963;0,197135
464,7605;0,197068
465,7248;0,196826
466,6890;0,196372
467,6532;0,195749
468,6175;0,195053
469,5817;0,194385
470,5459;0,193829
471,5102;0,193429
472,4744;0,193185
473,4386;0,193064
474,4029;0,193028
475,3671;0,193055
476,3313;0,193146
477,2956;0,193303
478,2598;0,193511
479,2240;0,19373
480,1883;0,19391
481,1525;0,194013
482,1167;0,194037
483,0810;0,194017
484,0452;0,194015
485,0094;0,194077
485,9737;0,194221
486,9379;0,194436
487,9021;0,1947
488,8664;0,194987
489,8306;0,195257
490,7948;0,195444
491,7591;0,195477
492,7233;0,195323
493,6875;0,195033
494,6518;0,194732
495,6160;0,194561
496,5802;0,194608
497,5445;0,194875
498,5087;0,195294
499,4729;0,19577
500,4372;0,196227
501,4014;0,196638
502,3656;0,197013
503,3299;0,197372
504,2941;0,19771
505,2583;0,197989
506,2226;0,198158
507,1868;0,198193
508,1510;0,198123
509,1153;0,198035
510,0795;0,198046
511,0437;0,198251
512,0080;0,19868
512,9722;0,199287
513,9365;0,199977
514,9007;0,200652
515,8649;0,201245
516,8292;0,201743
517,7934;0,202164
518,7576;0,202522
519,7219;0,202799
520,6861;0,202964
521,6503;0,203002
522,6146;0,202937
523,5788;0,202822
524,5430;0,202717
525,5073;0,202661
526,4715;0,202657
527,4357;0,202679
528,4000;0,202699
529,3642;0,202705
530,3284;0,202693
531,2927;0,202641
532,2569;0,202508
533,2211;0,20224
534,1854;0,20181
535,1496;0,201242
536,1138;0,200612
537,0781;0,20002
538,0423;0,199539
539,0065;0,199187
539,9708;0,198931
540,9350;0,198723
541,8992;0,198542
542,8635;0,198415
543,8277;0,198398
544,7919;0,19853
545,7562;0,19879
546,7204;0,199087
547,6846;0,199311
548,6489;0,199396
549,6131;0,199367
550,5773;0,199325
551,5416;0,199385
552,5058;0,199609
553,4700;0,199979
554,4343;0,200406
555,3985;0,200779
556,3627;0,201015
557,3270;0,201078
558,2912;0,200975
559,2554;0,20073
560,2197;0,200363
561,1839;0,199883
562,1481;0,199297
563,1124;0,198624
564,0766;0,197901
565,0408;0,197185
566,0051;0,196542
566,9693;0,196027
567,9335;0,19566
568,8978;0,195414
569,8620;0,195227
570,8262;0,195035
571,7905;0,194806
572,7547;0,194548
573,7189;0,194294
574,6832;0,194077
575,6474;0,193909
576,6116;0,193777
577,5759;0,193654
578,5401;0,193518
579,5043;0,193348
580,4686;0,193123
581,4328;0,192827
582,3970;0,19246
583,3613;0,192054
584,3255;0,191669
585,2897;0,191367
586,2540;0,191185
587,2182;0,19111
588,1824;0,191096
589,1467;0,191092
590,1109;0,191062
591,0751;0,190994
592,0394;0,190883
593,0036;0,190721
593,9678;0,190491
594,9321;0,190179
595,8963;0,189792
596,8605;0,18935
597,8248;0,188886
598,7890;0,188423
599,7532;0,187976
600,7175;0,187549
601,6817;0,187143
602,6459;0,186762
603,6102;0,186405
604,5744;0,186059
605,5386;0,185694
606,5029;0,18527
607,4671;0,184756
608,4313;0,18414
609,3956;0,183441
610,3598;0,182695
611,3240;0,181946
612,2883;0,18122
613,2525;0,18052
614,2167;0,17982
615,1810;0,179083
616,1452;0,178275
617,1094;0,177386
618,0737;0,176436
619,0379;0,175463
620,0021;0,1745
620,9664;0,173556
621,9306;0,172625
622,8948;0,171697
623,8591;0,170779
624,8233;0,169902
625,7875;0,169088
626,7518;0,168357
627,7160;0,167704
628,6802;0,167103
629,6445;0,16652
630,6087;0,165933
631,5729;0,165339
632,5372;0,164744
633,5014;0,164157
634,4656;0,163582
635,4299;0,163021
636,3941;0,162483
637,3583;0,161984
638,3226;0,161537
639,2868;0,161142
640,2510;0,160776
641,2153;0,160398
642,1795;0,15997
643,1437;0,159481
644,1080;0,158952
645,0722;0,158428
646,0364;0,157954
647,0007;0,157555
647,9649;0,157224
648,9291;0,156935
649,8934;0,156658
650,8576;0,156379
651,8218;0,156104
652,7861;0,155855
653,7503;0,155656
654,7145;0,155527
655,6788;0,155478
656,6430;0,15551
657,6072;0,155609
658,5715;0,155744
659,5357;0,155867
660,4999;0,15593
661,4642;0,155913
662,4284;0,155842
663,3926;0,155772
664,3569;0,155749
665,3211;0,155749
666,2853;0,155635
667,2496;0,155162
668,2138;0,154153
669,1780;0,152765
670,1423;0,151331
671,1065;0,149993
672,0707;0,148702
673,0350;0,147361
673,9992;0,145901
674,9634;0,144321
675,9277;0,142699
676,8919;0,141146
677,8561;0,139734
678,8204;0,138467
679,7846;0,13732
680,7488;0,136276
681,7131;0,135336
682,6773;0,134509
683,6415;0,133793
684,6058;0,133182
685,5700;0,132668
686,5342;0,132239
687,4985;0,131867
688,4627;0,13151
689,4269;0,131127
690,3912;0,130697
691,3554;0,130235
692,3196;0,129772
693,2839;0,129345
694,2481;0,128966
695,2123;0,128628
696,1766;0,128309
697,1408;0,127988
698,1050;0,12765
699,0693;0,127284
700,0335;0,126886
700,9977;0,126451
701,9620;0,125981
702,9262;0,125486
703,8904;0,124984
704,8547;0,124493
705,8189;0,124022
706,7831;0,123567
707,7474;0,123112
708,7116;0,122641
709,6758;0,122142
710,6401;0,121618
711,6043;0,121078
712,5685;0,120538
713,5328;0,120011
714,4970;0,1195
715,4612;0,119108
716,4255;0,118568
717,3897;0,117984
718,3539;0,117337
719,3182;0,116626
720,2824;0,115864
721,2466;0,115075
722,2109;0,114282
723,1751;0,113498
724,1393;0,112727
725,1036;0,111971
726,0678;0,111235
727,0320;0,110524
727,9963;0,109839
728,9605;0,10917
729,9247;0,108499
730,8890;0,107812
731,8532;0,107111
732,8174;0,106417
733,7817;0,105763
734,7459;0,105178
735,7101;0,104679
736,6744;0,104263
737,6386;0,10391
738,6028;0,10359
739,5671;0,10327
740,5313;0,102921
741,4955;0,102525
742,4598;0,102079
743,4240;0,101593
744,3882;0,101089
745,3525;0,10059
746,3167;0,100112
747,2809;0,0996627
748,2452;0,0992386
749,2094;0,0988303
750,1736;0,098426
751,1379;0,0980147
752,1021;0,0975884
753,0663;0,097144
754,0306;0,0966852
754,9948;0,0962237
755,9590;0,0957763
756,9233;0,0953576
757,8875;0,0949718
758,8517;0,0946074
759,8160;0,0942409
760,7802;0,0938493
761,7444;0,0934228
762,7087;0,0929715
763,6729;0,0925196
764,6371;0,0920906
765,6014;0,0916934
766,5656;0,0913176
767,5298;0,0909423
768,4941;0,0905515
769,4583;0,0901447
770,4225;0,0897368
771,3868;0,0893469
772,3510;0,0889849
773,3152;0,0886452
774,2795;0,0883125
775,2437;0,0879746
776,2079;0,0876327
777,1722;0,0873014
778,1364;0,0869966
779,1006;0,0867209
780,0649;0,0864551
781,0291;0,0861642
781,9933;0,0858135
782,9576;0,0853872
783,9218;0,0848971
784,8860;0,0843786
785,8503;0,0838768
786,8145;0,0834311
787,7787;0,0830642
788,7430;0,0827792
789,7072;0,0825621
790,6714;0,0823887
791,6357;0,0822317
792,5999;0,0820689
793,5641;0,0818883
794,5284;0,0816891
795,4926;0,081478
796,4568;0,0812639
797,4211;0,0810545
798,3853;0,0808553
799,3495;0,0806702
800,3138;0,0804995
801,2780;0,0803379
802,2422;0,0801733
803,2065;0,0799921
804,1707;0,0797874
805,1349;0,0795664
806,0992;0,0793487
807,0634;0,0791559
808,0276;0,0789985
808,9919;0,0788694
809,9561;0,0787492
810,9203;0,0786176
811,8846;0,0784644
812,8488;0,0782903
813,8130;0,0781016
814,7773;0,0779023
815,7415;0,0776926
816,7057;0,077473
817,6700;0,0772505
818,6342;0,0770412
819,5984;0,076865
820,5627;0,0767369
821,5269;0,0766591
822,4911;0,0766179
823,4554;0,076589
824,4196;0,076546
825,3839;0,0764719
826,3481;0,0763655
827,3123;0,0762419
828,2766;0,0761232
829,2408;0,0760255
830,2050;0,0759472
831,1693;0,0758667
832,1335;0,0757511
833,0977;0,0755719
834,0620;0,0753185
835,0262;0,0750025
835,9904;0,0746505
836,9547;0,0742908
837,9189;0,0739438
838,8831;0,0736187
839,8474;0,0733183
840,8116;0,0730448
841,7758;0,0728025
842,7401;0,0725961
843,7043;0,0724265
844,6685;0,072289
845,6328;0,0721755
846,5970;0,0720777
847,5612;0,0719901
848,5255;0,0719093
849,4897;0,0718323
850,4539;0,0717558
851,4182;0,0716771
852,3824;0,0715963
853,3466;0,0715172
854,3109;0,0714455
855,2751;0,0713854
856,2393;0,0713377
857,2036;0,0713
858,1678;0,0712687
859,1320;0,0712406
860,0963;0,0712131
861,0605;0,0711838
862,0247;0,0711513
862,9890;0,0711189
863,9532;0,0710965
864,9174;0,0711002
865,8817;0,0711458
866,8459;0,0712413
867,8101;0,0713804
868,7744;0,071544
869,7386;0,0717062
870,7028;0,0718431
871,6671;0,0719394
872,6313;0,0719899
873,5955;0,0719968
874,5598;0,0719656
875,5240;0,0719028
876,4882;0,0718152
877,4525;0,0717122
878,4167;0,0716102
879,3809;0,0715333
880,3452;0,0715123
881,3094;0,0715775
882,2736;0,0717501
883,2379;0,0720358
884,2021;0,0724253
885,1663;0,0729019
886,1306;0,0734517
887,0948;0,0740686
888,0590;0,0747533
889,0233;0,0755042
889,9875;0,0763098
890,9517;0,0771458
891,9160;0,0779787
892,8802;0,0787735
893,8444;0,079498
894,8087;0,0801238
895,7729;0,0806236
896,7371;0,0809695
897,7014;0,0811359
898,6656;0,0811064
899,6298;0,0808817
900,5941;0,0804841
901,5583;0,0799563
902,5225;0,0793528
903,4868;0,078729
904,4510;0,0781308
905,4152;0,0775903
906,3795;0,0771273
907,3437;0,0767541
908,3079;0,07648
909,2722;0,0763105
910,2364;0,0762442
911,2007;0,0762703
912,1649;0,0763705
913,1292;0,0765255
914,0934;0,0767217
915,0576;0,0769538
916,0219;0,0772211
916,9861;0,0775218
917,9503;0,0778489
918,9146;0,0781925
919,8788;0,0785441
920,8430;0,0788997
921,8073;0,0792563
922,7715;0,079607
923,7357;0,0799369
924,7000;0,0802266
925,6642;0,080461
926,6284;0,0806373
927,5927;0,0807673
928,5569;0,080872
929,5211;0,0809728
930,4854;0,0810846
931,4496;0,0812139
932,4138;0,0813602
933,3781;0,0815188
934,3423;0,0816831
935,3065;0,0818485
936,2708;0,0820169
937,2350;0,0822015
938,1992;0,0824258
939,1635;0,082717
940,1277;0,0830945
941,0919;0,0835613
942,0562;0,0841048
943,0204;0,0847065
943,9846;0,0853548
944,9489;0,0860523
945,9131;0,0868125
946,8773;0,0876503
947,8416;0,0885723
948,8058;0,0895752
949,7700;0,0906505
950,7343;0,0917923
951,6985;0,0930019
952,6627;0,0942859
953,6270;0,0956507
954,5912;0,0970983
955,5554;0,0986246
956,5197;0,100221
957,4839;0,101878
958,4481;0,103585
959,4124;0,105331
960,3766;0,107109
961,3408;0,10891
962,3051;0,110733
963,2693;0,11258
964,2335;0,114456
965,1978;0,116365
966,1620;0,118309
967,1262;0,12029
968,0905;0,122311
969,0547;0,124385
970,0189;0,126537
970,9832;0,128801
971,9474;0,131218
972,9116;0,133821
973,8759;0,136641
974,8401;0,13969
975,8043;0,142972
976,7686;0,146471
977,7328;0,15016
978,6970;0,153987
979,6613;0,157889
980,6255;0,161784
981,5897;0,165586
982,5540;0,169207
983,5182;0,172568
984,4824;0,175609
985,4467;0,178295
986,4109;0,180618
987,3751;0,182601
988,3394;0,184287
989,3036;0,185723
990,2678;0,186957
991,2321;0,188024
992,1963;0,188952
993,1605;0,189766
994,1248;0,190495
995,0890;0,191171
996,0532;0,19183
997,0175;0,192498
997,9817;0,193191
998,9459;0,19391
999,9102;0,19465
1000,8744;0,195408
1001,8386;0,196199
1002,8029;0,197058
1003,7671;0,198036
1004,7313;0,199188
1005,6956;0,200561
1006,6598;0,202181
1007,6240;0,204055
1008,5883;0,206171
1009,5525;0,208507
1010,5167;0,211024
1011,4810;0,213672
1012,4452;0,216388
1013,4094;0,219096
1014,3737;0,221719
1015,3379;0,224185
1016,3021;0,226436
1017,2664;0,228438
1018,2306;0,230179
1019,1948;0,231675
1020,1591;0,232965
1021,1233;0,234105
1022,0875;0,235152
1023,0518;0,236151
1024,0160;0,237125
1024,9802;0,238073
1025,9445;0,238978
1026,9087;0,239809
1027,8729;0,240529
1028,8372;0,241094
1029,8014;0,241453
1030,7656;0,241542
1031,7299;0,241297
1032,6941;0,240663
1033,6583;0,239614
1034,6226;0,238174
1035,5868;0,236414
1036,5510;0,234456
1037,5153;0,232438
1038,4795;0,230497
1039,4437;0,228737
1040,4080;0,227217
1041,3722;0,225953
1042,3364;0,224922
1043,3007;0,224072
1044,2649;0,223329
1045,2291;0,222609
1046,1934;0,221825
1047,1576;0,220909
1048,1218;0,219817
1049,0861;0,218535
1050,0503;0,217065
1051,0145;0,21542
1051,9788;0,213609
1052,9430;0,211638
1053,9072;0,209519
1054,8715;0,207268
1055,8357;0,204892
1056,7999;0,20238
1057,7642;0,199695
1058,7284;0,196788
1059,6926;0,193626
1060,6569;0,190228
1061,6211;0,186671
1062,5853;0,183079
1063,5496;0,179588
1064,5138;0,17631
1065,4780;0,173305
1066,4423;0,170588
1067,4065;0,168143
1068,3707;0,165942
1069,3350;0,163952
1070,2992;0,162137
1071,2634;0,160451
1072,2277;0,158837
1073,1919;0,157236
1074,1561;0,155595
1075,1204;0,153878
1076,0846;0,152073
1077,0488;0,150191
1078,0131;0,148262
1078,9773;0,146331
1079,9415;0,144454
1080,9058;0,14268
1081,8700;0,141046
1082,8342;0,139568
1083,7985;0,138237
1084,7627;0,137031
1085,7269;0,135928
1086,6912;0,134916
1087,6554;0,133997
1088,6196;0,133186
1089,5839;0,132504
1090,5481;0,131967
1091,5123;0,131582
1092,4766;0,131342
1093,4408;0,131232
1094,4050;0,131234
1095,3693;0,131326
1096,3335;0,13149
1097,2977;0,131712
1098,2620;0,131976
1099,2262;0,132266
1100,1904;0,132565
1101,1547;0,132855
1102,1189;0,133117
1103,0831;0,133332
1104,0474;0,133475
1105,0116;0,133525
1105,9758;0,133462
1106,9401;0,133275
1107,9043;0,132963
1108,8685;0,132528
1109,8328;0,131964
1110,7970;0,131255
1111,7612;0,130378
1112,7255;0,129326
1113,6897;0,128122
1114,6539;0,126829
1115,6182;0,12553
1116,5824;0,124305
1117,5466;0,123206
1118,5109;0,122236
1119,4751;0,121358
1120,4393;0,120507
1121,4036;0,119613
1122,3678;0,118612
1123,3320;0,117453
1124,2963;0,1161
1125,2605;0,11454
1126,2247;0,112783
1127,1890;0,110862
1128,1532;0,108829
1129,1174;0,106738
1130,0817;0,104638
1131,0459;0,102565
1132,0101;0,100547
1132,9744;0,09861
1133,9386;0,0967866
1134,9028;0,0951137
1135,8671;0,0936287
1136,8313;0,0923601
1137,7955;0,0913221
1138,7598;0,0905114
1139,7240;0,0899094
1140,6882;0,0894862
1141,6525;0,0892067
1142,6167;0,0890376
1143,5809;0,0889528
1144,5452;0,0889374
1145,5094;0,0889864
1146,4736;0,0891004
1147,4379;0,0892805
1148,4021;0,0895251
1149,3663;0,0898298
1150,3306;0,090188
1151,2948;0,09059
1152,2590;0,09102
1153,2233;0,091453
1154,1875;0,0918533
1155,1517;0,0921761
1156,1160;0,0923698
1157,0802;0,0923791
1158,0444;0,0921454
1159,0087;0,0916098
1159,9729;0,0907181
1160,9371;0,0894306
1161,9014;0,087733
1162,8656;0,0856454
1163,8298;0,0832237
1164,7941;0,0805535
1165,7583;0,077738
1166,7225;0,0748841
1167,6868;0,0720889
1168,6510;0,0694304
1169,6152;0,0669627
1170,5795;0,0647166
1171,5437;0,0627039
1172,5079;0,0609226
1173,4722;0,0593616
1174,4364;0,0580028
1175,4006;0,0568238
1176,3649;0,0558018
1177,3291;0,0549179
1178,2933;0,0541614
1179,2576;0,0535277
1180,2218;0,0530136
1181,1860;0,0526108
1182,1503;0,0523037
1183,1145;0,0520729
1184,0787;0,0519028
1185,0430;0,0517873
1186,0072;0,0517306
1186,9714;0,0517435
1187,9357;0,051837
1188,8999;0,0520172
1189,8641;0,0522848
1190,8284;0,0526363
1191,7926;0,0530676
1192,7568;0,0535754
1193,7211;0,0541582
1194,6853;0,0548151
1195,6495;0,0555435
1196,6138;0,0563369
1197,5780;0,0571835
1198,5422;0,0580673
1199,5065;0,0589604
1200,4707;0,0598736
1201,4349;0,0607894
1202,3992;0,0617094
1203,3634;0,0626369
1204,3276;0,0635722
1205,2919;0,0645094
1206,2561;0,0654391
1207,2203;0,066356
1208,1846;0,0672652
1209,1488;0,0681847
1210,1130;0,0691401
1211,0773;0,0701542
1212,0415;0,0712375
1213,0057;0,0723832
1213,9700;0,0735717
1214,9342;0,0747793
1215,8984;0,0759866
1216,8627;0,0771817
1217,8269;0,0783575
1218,7911;0,079507
1219,7554;0,0806204
1220,7196;0,0816862
1221,6838;0,0826946
1222,6481;0,0836411
1223,6123;0,0845272
1224,5765;0,0853568
1225,5408;0,0861332
1226,5050;0,0868572
1227,4692;0,0875279
1228,4335;0,0881453
1229,3977;0,0887124
1230,3619;0,0892338
1231,3262;0,0897135
1232,2904;0,0901517
1233,2546;0,0905444
1234,2189;0,0908849
1235,1831;0,0911677
1236,1473;0,0913916
1237,1116;0,0915601
1238,0758;0,09168
1239,0400;0,0917586
1240,0043;0,0918005
1240,9685;0,0918054
1241,9327;0,0917683
1242,8970;0,091681
1243,8612;0,0915352
1244,8254;0,0913254
1245,7897;0,091052
1246,7539;0,0907207
1247,7181;0,0903413
1248,6824;0,0899238
1249,6466;0,0894768
1250,6108;0,0890065
1251,5751;0,0885184
1252,5393;0,0880188
1253,5035;0,0875147
1254,4678;0,0870109
1255,4320;0,0865069
1256,3962;0,0859957
1257,3605;0,0854653
1258,3247;0,0849033
1259,2889;0,0843008
1260,2532;0,0836528
1261,2174;0,0829568
1262,1816;0,08221
1263,1459;0,0814094
1264,1101;0,0805543
1265,0743;0,0796479
1266,0386;0,0786966
1267,0028;0,077706
1267,9670;0,0766784
1268,9313;0,0756141
1269,8955;0,0745163
1270,8597;0,0733965
1271,8240;0,0722737
1272,7882;0,0711686
1273,7524;0,0700952
1274,7167;0,069057
1275,6809;0,0680494
1276,6451;0,0670657
1277,6094;0,0661018
1278,5736;0,0651578
1279,5378;0,0642359
1280,5021;0,0633389
1281,4663;0,0624693
1282,4305;0,061631
1283,3948;0,0608304
1284,3590;0,0600766
1285,3232;0,05938
1286,2875;0,0587506
1287,2517;0,0581953
1288,2159;0,0577164
1289,1802;0,0573114
1290,1444;0,0569743
1291,1086;0,0566992
1292,0729;0,0564848
1293,0371;0,056335
1294,0013;0,0562583
1294,9656;0,0562627
1295,9298;0,0563526
1296,8940;0,0565267
1297,8583;0,0567799
1298,8225;0,0571057
1299,7867;0,0574969
1300,7510;0,0579458
1301,7152;0,0584431
1302,6794;0,0589805
1303,6437;0,0595533
1304,6079;0,060162
1305,5721;0,0608102
1306,5364;0,061499
1307,5006;0,0622235
1308,4648;0,0629725
1309,4291;0,0637326
1310,3933;0,0644914
1311,3575;0,0652371
1312,3218;0,0659549
1313,2860;0,0666237
1314,2502;0,0672166
1315,2145;0,0677047
1316,1787;0,0680623
1317,1429;0,0682731
1318,1072;0,0683372
1319,0714;0,0682757
1320,0356;0,0681278
1320,9999;0,0679382
1321,9641;0,0677426
1322,9283;0,0675604
1323,8926;0,0673976
1324,8568;0,0672526
1325,8210;0,0671222
1326,7853;0,0670024
1327,7495;0,0668883
1328,7137;0,0667723
1329,6780;0,0666438
1330,6422;0,0664915
1331,6064;0,0663062
1332,5707;0,0660811
1333,5349;0,0658088
1334,4991;0,0654762
1335,4634;0,0650616
1336,4276;0,0645402
1337,3918;0,0639036
1338,3561;0,0631865
1339,3203;0,0624745
1340,2845;0,0618646
1341,2488;0,0614064
1342,2130;0,0610834
1343,1772;0,0608446
1344,1415;0,0606438
1345,1057;0,0604604
1346,0699;0,0603017
1347,0342;0,0601943
1347,9984;0,0601688
1348,9626;0,0602441
1349,9269;0,0604198
1350,8911;0,0606793
1351,8553;0,0609999
1352,8196;0,0613657
1353,7838;0,0617741
1354,7480;0,062233
1355,7123;0,0627495
1356,6765;0,0633182
1357,6407;0,0639214
1358,6050;0,0645384
1359,5692;0,0651559
1360,5334;0,0657705
