TITLE;
DATA TYPE;INFRARED SPECTRUM
ORIGIN;JASCO
OWNER;
DATE;25/03/10
TIME;21:01:24
SPECTROMETER/DATA SYSTEM;
LOCALE;9226
RESOLUTION;
DELTAX;0,964233
XUNITS;1/CM
YUNITS;ABSORBANCE
FIRSTX;  399,1927
LASTX; 4000,6047
NPOINTS;    3736
FIRSTY;     0,18353
MAXY;     0,24142
MINY;     0,01129
XYDATA
399,1927;0,18353
400,1569;0,185075
401,1211;0,186287
402,0854;0,18704
403,0496;0,187426
404,0138;0,187596
404,9781;0,187669
405,9423;0,187673
406,9065;0,187558
407,8708;0,18729
408,8350;0,186958
409,7992;0,18682
410,7635;0,187192
411,7277;0,188245
412,6919;0,189853
413,6562;0,191652
414,6204;0,193237
415,5846;0,194306
416,5489;0,194704
417,5131;0,194505
418,4773;0,194124
419,4416;0,194173
420,4058;0,194904
421,3700;0,196047
422,3343;0,197203
423,2985;0,198102
424,2627;0,198597
425,2270;0,198653
426,1912;0,198352
427,1554;0,197856
428,1197;0,197329
429,0839;0,19686
430,0481;0,196453
431,0124;0,196064
431,9766;0,195667
432,9408;0,195294
433,9051;0,19502
434,8693;0,194921
435,8335;0,195016
436,7978;0,195247
437,7620;0,195519
438,7262;0,195741
439,6905;0,195837
440,6547;0,195732
441,6189;0,195343
442,5832;0,194625
443,5474;0,193649
444,5116;0,192629
445,4759;0,19183
446,4401;0,191416
447,4043;0,191367
448,3686;0,191494
449,3328;0,191544
450,2970;0,191317
451,2613;0,190767
452,2255;0,190021
453,1897;0,189285
454,1540;0,188726
455,1182;0,188385
456,0824;0,188184
457,0467;0,187985
458,0109;0,187703
458,9751;0,187374
459,9394;0,187103
460,9036;0,186951
461,8678;0,186869
462,8321;0,186733
463,7963;0,186414
464,7605;0,185858
465,7248;0,185136
466,6890;0,184411
467,6532;0,183844
468,6175;0,183509
469,5817;0,183382
470,5459;0,183386
471,5102;0,183465
472,4744;0,183609
473,4386;0,183825
474,4029;0,184085
475,3671;0,184319
476,3313;0,184461
477,2956;0,184504
478,2598;0,184513
479,2240;0,184583
480,1883;0,184782
481,1525;0,185105
482,1167;0,185479
483,0810;0,185821
484,0452;0,186091
485,0094;0,186316
485,9737;0,186551
486,9379;0,186829
487,9021;0,187145
488,8664;0,187467
489,8306;0,187771
490,7948;0,188045
491,7591;0,188287
492,7233;0,188501
493,6875;0,188691
494,6518;0,188871
495,6160;0,189058
496,5802;0,189262
497,5445;0,189467
498,5087;0,18964
499,4729;0,189752
500,4372;0,189818
501,4014;0,189911
502,3656;0,19013
503,3299;0,190535
504,2941;0,191093
505,2583;0,191696
506,2226;0,192222
507,1868;0,1926
508,1510;0,192845
509,1153;0,193045
510,0795;0,193314
511,0437;0,193731
512,0080;0,194308
512,9722;0,194997
513,9365;0,195716
514,9007;0,196382
515,8649;0,196939
516,8292;0,197369
517,7934;0,197695
518,7576;0,197957
519,7219;0,19818
520,6861;0,198358
521,6503;0,198466
522,6146;0,19849
523,5788;0,198447
524,5430;0,198385
525,5073;0,198364
526,4715;0,198412
527,4357;0,198501
528,4000;0,198567
529,3642;0,198559
530,3284;0,198476
531,2927;0,198363
532,2569;0,198283
533,2211;0,198264
534,1854;0,198274
535,1496;0,198225
536,1138;0,198023
537,0781;0,197622
538,0423;0,197053
539,0065;0,196403
539,9708;0,195785
540,9350;0,195297
541,8992;0,195006
542,8635;0,19495
543,8277;0,195135
544,7919;0,19552
545,7562;0,196013
546,7204;0,196489
547,6846;0,196844
548,6489;0,197047
549,6131;0,197151
550,5773;0,197261
551,5416;0,197467
552,5058;0,197802
553,4700;0,198242
554,4343;0,19873
555,3985;0,199207
556,3627;0,199625
557,3270;0,199926
558,2912;0,200038
559,2554;0,199892
560,2197;0,199452
561,1839;0,198746
562,1481;0,197862
563,1124;0,196911
564,0766;0,195983
565,0408;0,195129
566,0051;0,194372
566,9693;0,193732
567,9335;0,193237
568,8978;0,192905
569,8620;0,192718
570,8262;0,192622
571,7905;0,192552
572,7547;0,192464
573,7189;0,192345
574,6832;0,192207
575,6474;0,192056
576,6116;0,191887
577,5759;0,191683
578,5401;0,191438
579,5043;0,191171
580,4686;0,190912
581,4328;0,190689
582,3970;0,190503
583,3613;0,19034
584,3255;0,190183
585,2897;0,190033
586,2540;0,189902
587,2182;0,189801
588,1824;0,189719
589,1467;0,18963
590,1109;0,189501
591,0751;0,189315
592,0394;0,189076
593,0036;0,188805
593,9678;0,188513
594,9321;0,188194
595,8963;0,187826
596,8605;0,187388
597,8248;0,186874
598,7890;0,186305
599,7532;0,185724
600,7175;0,185182
601,6817;0,184715
602,6459;0,184335
603,6102;0,184024
604,5744;0,183743
605,5386;0,183448
606,5029;0,183097
607,4671;0,182661
608,4313;0,182127
609,3956;0,181495
610,3598;0,180783
611,3240;0,180037
612,2883;0,17932
613,2525;0,178698
614,2167;0,178201
615,1810;0,177793
616,1452;0,177366
617,1094;0,176773
618,0737;0,175905
619,0379;0,174755
620,0021;0,173415
620,9664;0,172019
621,9306;0,170675
622,8948;0,16944
623,8591;0,168325
624,8233;0,167305
625,7875;0,166399
626,7518;0,165609
627,7160;0,164929
628,6802;0,16433
629,6445;0,163764
630,6087;0,163179
631,5729;0,162546
632,5372;0,161878
633,5014;0,161217
634,4656;0,160619
635,4299;0,160119
636,3941;0,159723
637,3583;0,159405
638,3226;0,159133
639,2868;0,158876
640,2510;0,158611
641,2153;0,158323
642,1795;0,158005
643,1437;0,157655
644,1080;0,157289
645,0722;0,156929
646,0364;0,156599
647,0007;0,156309
647,9649;0,156056
648,9291;0,155825
649,8934;0,155607
650,8576;0,155405
651,8218;0,155237
652,7861;0,15512
653,7503;0,155059
654,7145;0,15505
655,6788;0,155086
656,6430;0,155156
657,6072;0,155248
658,5715;0,155326
659,5357;0,155327
660,4999;0,155176
661,4642;0,15483
662,4284;0,154305
663,3926;0,153655
664,3569;0,152952
665,3211;0,15229
666,2853;0,151783
667,2496;0,15143
668,2138;0,150938
669,1780;0,150002
670,1423;0,148798
671,1065;0,147615
672,0707;0,146451
673,0350;0,145166
673,9992;0,143674
674,9634;0,142004
675,9277;0,140267
676,8919;0,138598
677,8561;0,137078
678,8204;0,135708
679,7846;0,13445
680,7488;0,133269
681,7131;0,132165
682,6773;0,131162
683,6415;0,130293
684,6058;0,129579
685,5700;0,129016
686,5342;0,128567
687,4985;0,128164
688,4627;0,127736
689,4269;0,12723
690,3912;0,126639
691,3554;0,126
692,3196;0,125375
693,2839;0,124819
694,2481;0,124363
695,2123;0,124006
696,1766;0,123717
697,1408;0,123447
698,1050;0,123144
699,0693;0,122766
700,0335;0,122296
700,9977;0,121743
701,9620;0,121133
702,9262;0,120505
703,8904;0,119892
704,8547;0,119319
705,8189;0,118793
706,7831;0,118304
707,7474;0,117828
708,7116;0,117341
709,6758;0,116828
710,6401;0,116284
711,6043;0,115717
712,5685;0,115141
713,5328;0,114573
714,4970;0,11403
715,4612;0,113247
716,4255;0,112834
717,3897;0,112447
718,3539;0,112013
719,3182;0,111443
720,2824;0,110678
721,2466;0,109728
722,2109;0,108676
723,1751;0,107629
724,1393;0,106663
725,1036;0,105804
726,0678;0,105031
727,0320;0,104304
727,9963;0,103586
728,9605;0,10286
729,9247;0,102126
730,8890;0,101398
731,8532;0,100696
732,8174;0,100038
733,7817;0,0994376
734,7459;0,0988971
735,7101;0,0984044
736,6744;0,0979391
737,6386;0,0974827
738,6028;0,0970268
739,5671;0,096573
740,5313;0,0961251
741,4955;0,0956804
742,4598;0,0952272
743,4240;0,0947517
744,3882;0,0942476
745,3525;0,0937209
746,3167;0,0931861
747,2809;0,0926568
748,2452;0,0921387
749,2094;0,0916293
750,1736;0,0911231
751,1379;0,0906181
752,1021;0,0901173
753,0663;0,0896269
754,0306;0,0891525
754,9948;0,0886975
755,9590;0,088264
756,9233;0,0878525
757,8875;0,0874607
758,8517;0,0870809
759,8160;0,0867018
760,7802;0,0863142
761,7444;0,0859169
762,7087;0,0855189
763,6729;0,0851324
764,6371;0,0847632
765,6014;0,084404
766,5656;0,0840391
767,5298;0,0836563
768,4941;0,083258
769,4583;0,0828623
770,4225;0,0824922
771,3868;0,0821589
772,3510;0,0818542
773,3152;0,0815556
774,2795;0,0812424
775,2437;0,0809105
776,2079;0,0805761
777,1722;0,0802638
778,1364;0,0799892
779,1006;0,0797454
780,0649;0,0795044
781,0291;0,0792313
781,9933;0,0789022
782,9576;0,0785168
783,9218;0,0780978
784,8860;0,0776801
785,8503;0,0772967
786,8145;0,0769676
787,7787;0,0766967
788,7430;0,0764738
789,7072;0,076281
790,6714;0,0760993
791,6357;0,0759143
792,5999;0,0757195
793,5641;0,075516
794,5284;0,0753076
795,4926;0,0750963
796,4568;0,0748796
797,4211;0,0746543
798,3853;0,0744224
799,3495;0,0741954
800,3138;0,0739918
801,2780;0,0738271
802,2422;0,0737044
803,2065;0,0736101
804,1707;0,0735197
805,1349;0,0734091
806,0992;0,0732657
807,0634;0,0730915
808,0276;0,0729
808,9919;0,0727081
809,9561;0,0725289
810,9203;0,0723678
811,8846;0,0722221
812,8488;0,0720839
813,8130;0,0719436
814,7773;0,0717929
815,7415;0,0716277
816,7057;0,0714474
817,6700;0,0712546
818,6342;0,0710538
819,5984;0,0708507
820,5627;0,0706523
821,5269;0,0704656
822,4911;0,0702954
823,4554;0,0701409
824,4196;0,0699958
825,3839;0,0698508
826,3481;0,0696988
827,3123;0,069539
828,2766;0,069376
829,2408;0,0692162
830,2050;0,0690627
831,1693;0,0689116
832,1335;0,0687529
833,0977;0,0685733
834,0620;0,0683605
835,0262;0,0681072
835,9904;0,0678142
836,9547;0,0674915
837,9189;0,0671565
838,8831;0,066828
839,8474;0,0665194
840,8116;0,066235
841,7758;0,0659706
842,7401;0,0657205
843,7043;0,0654841
844,6685;0,0652684
845,6328;0,0650848
846,5970;0,0649409
847,5612;0,0648348
848,5255;0,0647551
849,4897;0,064686
850,4539;0,0646141
851,4182;0,064533
852,3824;0,0644426
853,3466;0,0643465
854,3109;0,0642482
855,2751;0,0641504
856,2393;0,064055
857,2036;0,0639643
858,1678;0,0638807
859,1320;0,0638065
860,0963;0,0637427
861,0605;0,0636906
862,0247;0,0636529
862,9890;0,0636346
863,9532;0,0636422
864,9174;0,0636806
865,8817;0,0637498
866,8459;0,0638432
867,8101;0,06395
868,7744;0,0640601
869,7386;0,0641688
870,7028;0,0642786
871,6671;0,0643963
872,6313;0,0645272
873,5955;0,06467
874,5598;0,064817
875,5240;0,0649584
876,4882;0,0650893
877,4525;0,0652146
878,4167;0,0653488
879,3809;0,0655121
880,3452;0,0657247
881,3094;0,0660039
882,2736;0,066364
883,2379;0,0668172
884,2021;0,0673738
885,1663;0,0680388
886,1306;0,0688085
887,0948;0,0696687
888,0590;0,0705965
889,0233;0,0715646
889,9875;0,0725462
890,9517;0,0735163
891,9160;0,0744498
892,8802;0,0753187
893,8444;0,0760902
894,8087;0,0767284
895,7729;0,0771978
896,7371;0,0774686
897,7014;0,077519
898,6656;0,0773392
899,6298;0,0769334
900,5941;0,0763229
901,5583;0,0755468
902,5225;0,0746579
903,4868;0,0737147
904,4510;0,0727709
905,4152;0,0718685
906,3795;0,0710368
907,3437;0,0702964
908,3079;0,0696635
909,2722;0,0691506
910,2364;0,0687613
911,2007;0,0684871
912,1649;0,0683082
913,1292;0,068201
914,0934;0,0681484
915,0576;0,0681449
916,0219;0,0681925
916,9861;0,0682922
917,9503;0,0684363
918,9146;0,0686087
919,8788;0,068793
920,8430;0,0689813
921,8073;0,0691767
922,7715;0,0693893
923,7357;0,0696267
924,7000;0,0698887
925,6642;0,0701663
926,6284;0,0704466
927,5927;0,0707177
928,5569;0,0709728
929,5211;0,0712122
930,4854;0,0714433
931,4496;0,0716795
932,4138;0,0719357
933,3781;0,0722228
934,3423;0,0725439
935,3065;0,0728959
936,2708;0,0732768
937,2350;0,073693
938,1992;0,0741616
939,1635;0,0747041
940,1277;0,0753354
941,0919;0,0760554
942,0562;0,0768502
943,0204;0,0777005
943,9846;0,0785936
944,9489;0,0795299
945,9131;0,0805219
946,8773;0,081588
947,8416;0,0827436
948,8058;0,083996
949,7700;0,0853413
950,7343;0,0867668
951,6985;0,0882534
952,6627;0,0897826
953,6270;0,091342
954,5912;0,0929303
955,5554;0,0945576
956,5197;0,0962402
957,4839;0,0979918
958,4481;0,0998153
959,4124;0,101698
960,3766;0,103613
961,3408;0,105527
962,3051;0,107412
963,2693;0,109252
964,2335;0,111049
965,1978;0,112824
966,1620;0,114604
967,1262;0,116418
968,0905;0,118288
969,0547;0,120231
970,0189;0,12226
970,9832;0,12439
971,9474;0,126645
972,9116;0,129055
973,8759;0,131655
974,8401;0,134474
975,8043;0,137526
976,7686;0,140808
977,7328;0,144294
978,6970;0,147935
979,6613;0,151664
980,6255;0,155398
981,5897;0,15904
982,5540;0,162491
983,5182;0,165663
984,4824;0,168496
985,4467;0,17097
986,4109;0,173105
987,3751;0,17495
988,3394;0,176566
989,3036;0,178001
990,2678;0,179282
991,2321;0,180421
992,1963;0,181423
993,1605;0,182303
994,1248;0,183097
995,0890;0,183853
996,0532;0,184626
997,0175;0,185455
997,9817;0,186355
998,9459;0,18732
999,9102;0,188329
1000,8744;0,189371
1001,8386;0,190454
1002,8029;0,19161
1003,7671;0,192882
1004,7313;0,194312
1005,6956;0,195928
1006,6598;0,197742
1007,6240;0,199757
1008,5883;0,201972
1009,5525;0,204384
1010,5167;0,206978
1011,4810;0,209721
1012,4452;0,212558
1013,4094;0,215413
1014,3737;0,218204
1015,3379;0,220858
1016,3021;0,223325
1017,2664;0,225576
1018,2306;0,227607
1019,1948;0,229429
1020,1591;0,231066
1021,1233;0,23255
1022,0875;0,233919
1023,0518;0,235202
1024,0160;0,23642
1024,9802;0,237575
1025,9445;0,23865
1026,9087;0,239615
1027,8729;0,240431
1028,8372;0,241045
1029,8014;0,241396
1030,7656;0,241417
1031,7299;0,241036
1032,6941;0,240202
1033,6583;0,238895
1034,6226;0,237149
1035,5868;0,235058
1036,5510;0,23276
1037,5153;0,23042
1038,4795;0,228197
1039,4437;0,226217
1040,4080;0,224557
1041,3722;0,223238
1042,3364;0,22223
1043,3007;0,221463
1044,2649;0,220843
1045,2291;0,220265
1046,1934;0,219634
1047,1576;0,218874
1048,1218;0,217942
1049,0861;0,216821
1050,0503;0,215509
1051,0145;0,214008
1051,9788;0,212317
1052,9430;0,210439
1053,9072;0,208389
1054,8715;0,206187
1055,8357;0,203854
1056,7999;0,201383
1057,7642;0,198736
1058,7284;0,195854
1059,6926;0,19269
1060,6569;0,189245
1061,6211;0,185587
1062,5853;0,18184
1063,5496;0,178154
1064,5138;0,174656
1065,4780;0,171432
1066,4423;0,168509
1067,4065;0,165874
1068,3707;0,163486
1069,3350;0,161294
1070,2992;0,159248
1071,2634;0,157296
1072,2277;0,155391
1073,1919;0,153492
1074,1561;0,151563
1075,1204;0,149589
1076,0846;0,147571
1077,0488;0,145534
1078,0131;0,143524
1078,9773;0,141591
1079,9415;0,139785
1080,9058;0,138144
1081,8700;0,13669
1082,8342;0,135428
1083,7985;0,134349
1084,7627;0,133433
1085,7269;0,132652
1086,6912;0,131978
1087,6554;0,131386
1088,6196;0,130861
1089,5839;0,130401
1090,5481;0,130009
1091,5123;0,129689
1092,4766;0,129442
1093,4408;0,129264
1094,4050;0,129151
1095,3693;0,129103
1096,3335;0,12912
1097,2977;0,129202
1098,2620;0,129343
1099,2262;0,129525
1100,1904;0,129723
1101,1547;0,12991
1102,1189;0,130062
1103,0831;0,130159
1104,0474;0,130187
1105,0116;0,130131
1105,9758;0,129981
1106,9401;0,129733
1107,9043;0,129386
1108,8685;0,128934
1109,8328;0,128362
1110,7970;0,127639
1111,7612;0,126733
1112,7255;0,125627
1113,6897;0,124341
1114,6539;0,122936
1115,6182;0,121499
1116,5824;0,120115
1117,5466;0,118835
1118,5109;0,117664
1119,4751;0,116568
1120,4393;0,115488
1121,4036;0,114365
1122,3678;0,113143
1123,3320;0,111776
1124,2963;0,11023
1125,2605;0,108482
1126,2247;0,106533
1127,1890;0,104413
1128,1532;0,102174
1129,1174;0,0998779
1130,0817;0,0975833
1131,0459;0,0953356
1132,0101;0,0931673
1132,9744;0,0911059
1133,9386;0,0891807
1134,9028;0,0874262
1135,8671;0,0858775
1136,8313;0,0845643
1137,7955;0,083504
1138,7598;0,0826988
1139,7240;0,0821355
1140,6882;0,0817888
1141,6525;0,0816264
1142,6167;0,0816158
1143,5809;0,0817306
1144,5452;0,0819539
1145,5094;0,0822772
1146,4736;0,0826958
1147,4379;0,0832035
1148,4021;0,0837904
1149,3663;0,0844433
1150,3306;0,0851478
1151,2948;0,0858882
1152,2590;0,0866444
1153,2233;0,0873875
1154,1875;0,0880772
1155,1517;0,0886623
1156,1160;0,0890851
1157,0802;0,0892858
1158,0444;0,0892058
1159,0087;0,0887892
1159,9729;0,0879848
1160,9371;0,0867527
1161,9014;0,0850744
1162,8656;0,0829638
1163,8298;0,0804741
1164,7941;0,077695
1165,7583;0,0747399
1166,7225;0,0717275
1167,6868;0,0687646
1168,6510;0,0659349
1169,6152;0,0632957
1170,5795;0,0608809
1171,5437;0,0587064
1172,5079;0,0567736
1173,4722;0,0550724
1174,4364;0,053583
1175,4006;0,0522812
1176,3649;0,0511454
1177,3291;0,0501622
1178,2933;0,0493265
1179,2576;0,0486363
1180,2218;0,0480834
1181,1860;0,0476498
1182,1503;0,04731
1183,1145;0,0470406
1184,0787;0,0468292
1185,0430;0,0466772
1186,0072;0,0465953
1186,9714;0,0465949
1187,9357;0,0466817
1188,8999;0,0468544
1189,8641;0,0471084
1190,8284;0,04744
1191,7926;0,0478481
1192,7568;0,048333
1193,7211;0,0488938
1194,6853;0,0495263
1195,6495;0,0502225
1196,6138;0,0509703
1197,5780;0,0517538
1198,5422;0,0525552
1199,5065;0,0532844
1200,4707;0,0540831
1201,4349;0,0548636
1202,3992;0,0556243
1203,3634;0,0563661
1204,3276;0,0570883
1205,2919;0,0577876
1206,2561;0,0584614
1207,2203;0,0591128
1208,1846;0,0597546
1209,1488;0,0604097
1210,1130;0,0611051
1211,0773;0,0618646
1212,0415;0,0627003
1213,0057;0,06361
1213,9700;0,0645791
1214,9342;0,0655873
1215,8984;0,0666147
1216,8627;0,0676446
1217,8269;0,0686632
1218,7911;0,0696587
1219,7554;0,0706198
1220,7196;0,0715364
1221,6838;0,0724016
1222,6481;0,0732125
1223,6123;0,0739695
1224,5765;0,0746743
1225,5408;0,0753291
1226,5050;0,0759356
1227,4692;0,0764967
1228,4335;0,077016
1229,3977;0,0774976
1230,3619;0,0779432
1231,3262;0,0783514
1232,2904;0,0787171
1233,2546;0,0790345
1234,2189;0,0792999
1235,1831;0,0795146
1236,1473;0,0796854
1237,1116;0,0798228
1238,0758;0,0799371
1239,0400;0,0800341
1240,0043;0,0801126
1240,9685;0,0801637
1241,9327;0,0801747
1242,8970;0,0801339
1243,8612;0,0800356
1244,8254;0,0798809
1245,7897;0,0796758
1246,7539;0,0794273
1247,7181;0,0791409
1248,6824;0,0788209
1249,6466;0,0784741
1250,6108;0,0781111
1251,5751;0,0777462
1252,5393;0,0773925
1253,5035;0,0770571
1254,4678;0,0767384
1255,4320;0,0764268
1256,3962;0,0761096
1257,3605;0,0757748
1258,3247;0,0754142
1259,2889;0,0750225
1260,2532;0,0745955
1261,2174;0,0741287
1262,1816;0,0736174
1263,1459;0,073058
1264,1101;0,07245
1265,0743;0,0717955
1266,0386;0,0710973
1267,0028;0,0703564
1267,9670;0,0695716
1268,9313;0,0687418
1269,8955;0,0678705
1270,8597;0,0669679
1271,8240;0,0660506
1272,7882;0,0651359
1273,7524;0,0642374
1274,7167;0,0633626
1275,6809;0,062514
1276,6451;0,0616916
1277,6094;0,0608939
1278,5736;0,0601178
1279,5378;0,0593587
1280,5021;0,0586125
1281,4663;0,0578787
1282,4305;0,0571622
1283,3948;0,0564725
1284,3590;0,0558205
1285,3232;0,055217
1286,2875;0,0546712
1287,2517;0,0541921
1288,2159;0,0537876
1289,1802;0,0534628
1290,1444;0,0532177
1291,1086;0,0530473
1292,0729;0,0529441
1293,0371;0,0529021
1294,0013;0,0529198
1294,9656;0,0529993
1295,9298;0,0531444
1296,8940;0,0533576
1297,8583;0,0536392
1298,8225;0,0539878
1299,7867;0,0544005
1300,7510;0,0548724
1301,7152;0,0553982
1302,6794;0,055972
1303,6437;0,0565901
1304,6079;0,0572507
1305,5721;0,0579517
1306,5364;0,0586866
1307,5006;0,0594434
1308,4648;0,0602072
1309,4291;0,060965
1310,3933;0,0617077
1311,3575;0,0624273
1312,3218;0,0631115
1313,2860;0,0637401
1314,2502;0,0642858
1315,2145;0,0647202
1316,1787;0,0650195
1317,1429;0,0651708
1318,1072;0,0651779
1319,0714;0,0650644
1320,0356;0,0648699
1320,9999;0,0646369
1321,9641;0,0643973
1322,9283;0,064167
1323,8926;0,0639498
1324,8568;0,063745
1325,8210;0,0635523
1326,7853;0,0633725
1327,7495;0,0632054
1328,7137;0,0630475
1329,6780;0,0628905
1330,6422;0,0627238
1331,6064;0,0625362
1332,5707;0,062317
1333,5349;0,062054
1334,4991;0,0617298
1335,4634;0,0613196
1336,4276;0,0607976
1337,3918;0,0601535
1338,3561;0,0594186
1339,3203;0,0586759
1340,2845;0,0580264
1341,2488;0,0575275
1342,2130;0,0571672
1343,1772;0,056893
1344,1415;0,0566543
1345,1057;0,056428
1346,0699;0,0562221
1347,0342;0,056066
1347,9984;0,0559935
1348,9626;0,0560266
1349,9269;0,0561655
1350,8911;0,0563908
1351,8553;0,0566738
1352,8196;0,0569901
1353,7838;0,0573307
1354,7480;0,0577033
1355,7123;0,0581217
1356,6765;0,0585902
1357,6407;0,0590958
1358,6050;0,0596146
1359,5692;0,0601238
