TITLE;
DATA TYPE;INFRARED SPECTRUM
ORIGIN;JASCO
OWNER;
DATE;25/03/10
TIME;21:09:18
SPECTROMETER/DATA SYSTEM;
LOCALE;9226
RESOLUTION;
DELTAX;0,964233
XUNITS;1/CM
YUNITS;ABSORBANCE
FIRSTX;  399,1927
LASTX; 4000,6047
NPOINTS;    3736
FIRSTY;     0,18316
MAXY;     0,22104
MINY;     0,01520
XYDATA
399,1927;0,183157
400,1569;0,183727
401,1211;0,184474
402,0854;0,184973
403,0496;0,185052
404,0138;0,184718
404,9781;0,184079
405,9423;0,183297
406,9065;0,182513
407,8708;0,181791
408,8350;0,181123
409,7992;0,180503
410,7635;0,180008
411,7277;0,179797
412,6919;0,180007
413,6562;0,180647
414,6204;0,18158
415,5846;0,182577
416,5489;0,183372
417,5131;0,183735
418,4773;0,183655
419,4416;0,183469
420,4058;0,183553
421,3700;0,183946
422,3343;0,184453
423,2985;0,184898
424,2627;0,185216
425,2270;0,185434
426,1912;0,185611
427,1554;0,185784
428,1197;0,185958
429,0839;0,186137
430,0481;0,186357
431,0124;0,186671
431,9766;0,187084
432,9408;0,187501
433,9051;0,187751
434,8693;0,187688
435,8335;0,187308
436,7978;0,18678
437,7620;0,186334
438,7262;0,186108
439,6905;0,186072
440,6547;0,186065
441,6189;0,185912
442,5832;0,185539
443,5474;0,185024
444,5116;0,184526
445,4759;0,184137
446,4401;0,18381
447,4043;0,183411
448,3686;0,182833
449,3328;0,18209
450,2970;0,181335
451,2613;0,180789
452,2255;0,180617
453,1897;0,180812
454,1540;0,181181
455,1182;0,181413
456,0824;0,181223
457,0467;0,180524
458,0109;0,179538
458,9751;0,178692
459,9394;0,178319
460,9036;0,178456
461,8678;0,178909
462,8321;0,179433
463,7963;0,179839
464,7605;0,180038
465,7248;0,180018
466,6890;0,179807
467,6532;0,179433
468,6175;0,17892
469,5817;0,178318
470,5459;0,177731
471,5102;0,177298
472,4744;0,177136
473,4386;0,177266
474,4029;0,177619
475,3671;0,178112
476,3313;0,178705
477,2956;0,179386
478,2598;0,180124
479,2240;0,180828
480,1883;0,181368
481,1525;0,18163
482,1167;0,181581
483,0810;0,181293
484,0452;0,180927
485,0094;0,180661
485,9737;0,180615
486,9379;0,180808
487,9021;0,181182
488,8664;0,181644
489,8306;0,182104
490,7948;0,182497
491,7591;0,1828
492,7233;0,183028
493,6875;0,183212
494,6518;0,183368
495,6160;0,183473
496,5802;0,183487
497,5445;0,183381
498,5087;0,183167
499,4729;0,182913
500,4372;0,18273
501,4014;0,182738
502,3656;0,183004
503,3299;0,183514
504,2941;0,184168
505,2583;0,184825
506,2226;0,185356
507,1868;0,185681
508,1510;0,185804
509,1153;0,185815
510,0795;0,185854
511,0437;0,186046
512,0080;0,186438
512,9722;0,186988
513,9365;0,187591
514,9007;0,188133
515,8649;0,188542
516,8292;0,18882
517,7934;0,189023
518,7576;0,189221
519,7219;0,189435
520,6861;0,189631
521,6503;0,189751
522,6146;0,189748
523,5788;0,189611
524,5430;0,189373
525,5073;0,189099
526,4715;0,188862
527,4357;0,188694
528,4000;0,188576
529,3642;0,188458
530,3284;0,188296
531,2927;0,188075
532,2569;0,187815
533,2211;0,187549
534,1854;0,187301
535,1496;0,187065
536,1138;0,186817
537,0781;0,186538
538,0423;0,186242
539,0065;0,185976
539,9708;0,185802
540,9350;0,185771
541,8992;0,185897
542,8635;0,186156
543,8277;0,186493
544,7919;0,186842
545,7562;0,187143
546,7204;0,18736
547,6846;0,187496
548,6489;0,187596
549,6131;0,187732
550,5773;0,187973
551,5416;0,188352
552,5058;0,188852
553,4700;0,189412
554,4343;0,189953
555,3985;0,190407
556,3627;0,190725
557,3270;0,190873
558,2912;0,190816
559,2554;0,190509
560,2197;0,189915
561,1839;0,189034
562,1481;0,187928
563,1124;0,186711
564,0766;0,185513
565,0408;0,18444
566,0051;0,183541
566,9693;0,182817
567,9335;0,182231
568,8978;0,181737
569,8620;0,181297
570,8262;0,180884
571,7905;0,180485
572,7547;0,180098
573,7189;0,179734
574,6832;0,17941
575,6474;0,179147
576,6116;0,178956
577,5759;0,178828
578,5401;0,178738
579,5043;0,178654
580,4686;0,178548
581,4328;0,178401
582,3970;0,178209
583,3613;0,177976
584,3255;0,177723
585,2897;0,177474
586,2540;0,177257
587,2182;0,17709
588,1824;0,176979
589,1467;0,176916
590,1109;0,17688
591,0751;0,176844
592,0394;0,176775
593,0036;0,176647
593,9678;0,17644
594,9321;0,176145
595,8963;0,175766
596,8605;0,175315
597,8248;0,174816
598,7890;0,174293
599,7532;0,173779
600,7175;0,173303
601,6817;0,172891
602,6459;0,172554
603,6102;0,172285
604,5744;0,17205
605,5386;0,171799
606,5029;0,171484
607,4671;0,171072
608,4313;0,170561
609,3956;0,169969
610,3598;0,169326
611,3240;0,168663
612,2883;0,168016
613,2525;0,167416
614,2167;0,166883
615,1810;0,166398
616,1452;0,165891
617,1094;0,165252
618,0737;0,164392
619,0379;0,163301
620,0021;0,162054
620,9664;0,160773
621,9306;0,159558
622,8948;0,158457
623,8591;0,157459
624,8233;0,156502
625,7875;0,155616
626,7518;0,154805
627,7160;0,154087
628,6802;0,153459
629,6445;0,152892
630,6087;0,152329
631,5729;0,151725
632,5372;0,15106
633,5014;0,150359
634,4656;0,149672
635,4299;0,149051
636,3941;0,148533
637,3583;0,148126
638,3226;0,147811
639,2868;0,147553
640,2510;0,147305
641,2153;0,147015
642,1795;0,146639
643,1437;0,146156
644,1080;0,145585
645,0722;0,144976
646,0364;0,144398
647,0007;0,143911
647,9649;0,143545
648,9291;0,14329
649,8934;0,143112
650,8576;0,142971
651,8218;0,142848
652,7861;0,142751
653,7503;0,142703
654,7145;0,142721
655,6788;0,142799
656,6430;0,142901
657,6072;0,142989
658,5715;0,143037
659,5357;0,143035
660,4999;0,14297
661,4642;0,142797
662,4284;0,142417
663,3926;0,141702
664,3569;0,140547
665,3211;0,138971
666,2853;0,137189
667,2496;0,13557
668,2138;0,134401
669,1780;0,13375
670,1423;0,133557
671,1065;0,133557
672,0707;0,133356
673,0350;0,132688
673,9992;0,131516
674,9634;0,129975
675,9277;0,128277
676,8919;0,126617
677,8561;0,125108
678,8204;0,123783
679,7846;0,122635
680,7488;0,121649
681,7131;0,120809
682,6773;0,12009
683,6415;0,119468
684,6058;0,118927
685,5700;0,118459
686,5342;0,118046
687,4985;0,117658
688,4627;0,117261
689,4269;0,116835
690,3912;0,116396
691,3554;0,115984
692,3196;0,115638
693,2839;0,11537
694,2481;0,115162
695,2123;0,114981
696,1766;0,114787
697,1408;0,114555
698,1050;0,114268
699,0693;0,113926
700,0335;0,11354
700,9977;0,113128
701,9620;0,112704
702,9262;0,112276
703,8904;0,111828
704,8547;0,111359
705,8189;0,110871
706,7831;0,110382
707,7474;0,109911
708,7116;0,109468
709,6758;0,109042
710,6401;0,108606
711,6043;0,108131
712,5685;0,107602
713,5328;0,107024
714,4970;0,106421
715,4612;0,105253
716,4255;0,104769
717,3897;0,104322
718,3539;0,10385
719,3182;0,103286
720,2824;0,102591
721,2466;0,101783
722,2109;0,100923
723,1751;0,100071
724,1393;0,0992601
725,1036;0,0984896
726,0678;0,0977426
727,0320;0,0970073
727,9963;0,0962846
728,9605;0,0955807
729,9247;0,0948976
730,8890;0,0942307
731,8532;0,093578
732,8174;0,0929499
733,7817;0,0923677
734,7459;0,0918526
735,7101;0,0914104
736,6744;0,0910261
737,6386;0,0906707
738,6028;0,0903134
739,5671;0,0899322
740,5313;0,0895173
741,4955;0,0890691
742,4598;0,0885952
743,4240;0,088109
744,3882;0,0876273
745,3525;0,087166
746,3167;0,0867337
747,2809;0,0863277
748,2452;0,0859359
749,2094;0,085543
750,1736;0,085138
751,1379;0,0847176
752,1021;0,0842848
753,0663;0,0838444
754,0306;0,0834004
754,9948;0,0829552
755,9590;0,0825123
756,9233;0,0820771
757,8875;0,0816574
758,8517;0,0812609
759,8160;0,0808939
760,7802;0,0805594
761,7444;0,0802557
762,7087;0,0799751
763,6729;0,0797026
764,6371;0,0794197
765,6014;0,0791109
766,5656;0,0787717
767,5298;0,0784126
768,4941;0,078054
769,4583;0,0777157
770,4225;0,0774049
771,3868;0,077114
772,3510;0,0768276
773,3152;0,076536
774,2795;0,076245
775,2437;0,0759741
776,2079;0,0757449
777,1722;0,0755658
778,1364;0,075423
779,1006;0,0752844
780,0649;0,0751116
781,0291;0,0748756
781,9933;0,0745654
782,9576;0,07419
783,9218;0,0737721
784,8860;0,0733416
785,8503;0,0729284
786,8145;0,0725574
787,7787;0,0722442
788,7430;0,0719918
789,7072;0,0717902
790,6714;0,0716192
791,6357;0,0714563
792,5999;0,0712845
793,5641;0,0710977
794,5284;0,0708993
795,4926;0,0706959
796,4568;0,0704919
797,4211;0,0702863
798,3853;0,0700766
799,3495;0,0698641
800,3138;0,0696571
801,2780;0,0694679
802,2422;0,0693057
803,2065;0,06917
804,1707;0,0690489
805,1349;0,0689253
806,0992;0,0687875
807,0634;0,068637
808,0276;0,0684894
808,9919;0,0683658
809,9561;0,0682795
810,9203;0,0682257
811,8846;0,0681805
812,8488;0,0681115
813,8130;0,0679948
814,7773;0,0678273
815,7415;0,0676291
816,7057;0,0674326
817,6700;0,0672666
818,6342;0,0671434
819,5984;0,067056
820,5627;0,0669847
821,5269;0,0669072
822,4911;0,0668058
823,4554;0,0666706
824,4196;0,0664997
825,3839;0,0663002
826,3481;0,0660884
827,3123;0,0658874
828,2766;0,0657182
829,2408;0,0655894
830,2050;0,0654898
831,1693;0,0653914
832,1335;0,0652614
833,0977;0,0650776
834,0620;0,0648369
835,0262;0,0645548
835,9904;0,064255
836,9547;0,0639593
837,9189;0,0636814
838,8831;0,063426
839,8474;0,0631922
840,8116;0,062976
841,7758;0,062772
842,7401;0,0625741
843,7043;0,0623787
844,6685;0,0621866
845,6328;0,062003
846,5970;0,0618351
847,5612;0,0616875
848,5255;0,0615587
849,4897;0,0614427
850,4539;0,0613327
851,4182;0,0612263
852,3824;0,061126
853,3466;0,0610369
854,3109;0,060961
855,2751;0,0608947
856,2393;0,0608294
857,2036;0,0607571
858,1678;0,060675
859,1320;0,0605876
860,0963;0,0605046
861,0605;0,0604362
862,0247;0,0603892
862,9890;0,060367
863,9532;0,060371
864,9174;0,0604036
865,8817;0,0604678
866,8459;0,0605654
867,8101;0,0606942
868,7744;0,0608479
869,7386;0,0610185
870,7028;0,0611991
871,6671;0,0613853
872,6313;0,0615737
873,5955;0,0617606
874,5598;0,0619412
875,5240;0,0621122
876,4882;0,0622757
877,4525;0,062442
878,4167;0,0626288
879,3809;0,0628572
880,3452;0,0631472
881,3094;0,0635126
882,2736;0,0639596
883,2379;0,0644862
884,2021;0,0650837
885,1663;0,0657391
886,1306;0,066439
887,0948;0,0671719
888,0590;0,0679303
889,0233;0,0687094
889,9875;0,0695041
890,9517;0,0703044
891,9160;0,0710908
892,8802;0,0718328
893,8444;0,0724912
894,8087;0,0730242
895,7729;0,0733954
896,7371;0,0735809
897,7014;0,0735727
898,6656;0,0733763
899,6298;0,0730068
900,5941;0,0724848
901,5583;0,0718366
902,5225;0,0710975
903,4868;0,0703123
904,4510;0,0695318
905,4152;0,0688028
906,3795;0,0681579
907,3437;0,0676112
908,3079;0,0671599
909,2722;0,0667927
910,2364;0,0664965
911,2007;0,0662608
912,1649;0,0660781
913,1292;0,0659441
914,0934;0,0658593
915,0576;0,0658293
916,0219;0,0658622
916,9861;0,0659616
917,9503;0,0661203
918,9146;0,0663205
919,8788;0,0665406
920,8430;0,0667659
921,8073;0,0669943
922,7715;0,067233
923,7357;0,067489
924,7000;0,0677608
925,6642;0,0680376
926,6284;0,0683051
927,5927;0,0685549
928,5569;0,0687885
929,5211;0,0690159
930,4854;0,0692504
931,4496;0,0695035
932,4138;0,0697838
933,3781;0,0700977
934,3423;0,0704495
935,3065;0,070843
936,2708;0,0712811
937,2350;0,0717673
938,1992;0,0723066
939,1635;0,0729053
940,1277;0,0735691
941,0919;0,0743009
942,0562;0,0751002
943,0204;0,0759642
943,9846;0,0768905
944,9489;0,0778769
945,9131;0,0789216
946,8773;0,0800207
947,8416;0,0811681
948,8058;0,0823568
949,7700;0,0835819
950,7343;0,084842
951,6985;0,0861403
952,6627;0,0874828
953,6270;0,0888758
954,5912;0,0903229
955,5554;0,0918224
956,5197;0,0933657
957,4839;0,0949388
958,4481;0,096525
959,4124;0,0981099
960,3766;0,0996843
961,3408;0,101246
962,3051;0,1028
963,2693;0,104352
964,2335;0,105911
965,1978;0,107487
966,1620;0,109088
967,1262;0,110721
968,0905;0,112397
969,0547;0,114127
970,0189;0,115927
970,9832;0,117819
971,9474;0,119827
972,9116;0,12198
973,8759;0,124305
974,8401;0,126823
975,8043;0,129548
976,7686;0,13248
977,7328;0,135599
978,6970;0,138862
979,6613;0,142202
980,6255;0,145532
981,5897;0,148755
982,5540;0,15178
983,5182;0,154538
984,4824;0,15699
985,4467;0,15913
986,4109;0,160984
987,3751;0,162596
988,3394;0,164017
989,3036;0,165292
990,2678;0,166449
991,2321;0,167499
992,1963;0,168442
993,1605;0,169277
994,1248;0,170017
995,0890;0,170691
996,0532;0,171345
997,0175;0,172023
997,9817;0,172751
998,9459;0,173531
999,9102;0,174348
1000,8744;0,175189
1001,8386;0,176061
1002,8029;0,177
1003,7671;0,178054
1004,7313;0,179268
1005,6956;0,180664
1006,6598;0,182241
1007,6240;0,18398
1008,5883;0,185861
1009,5525;0,18787
1010,5167;0,189993
1011,4810;0,192214
1012,4452;0,194503
1013,4094;0,19682
1014,3737;0,199118
1015,3379;0,201348
1016,3021;0,203471
1017,2664;0,205455
1018,2306;0,207286
1019,1948;0,208966
1020,1591;0,210514
1021,1233;0,211959
1022,0875;0,213329
1023,0518;0,21464
1024,0160;0,215893
1024,9802;0,217073
1025,9445;0,218158
1026,9087;0,219125
1027,8729;0,219942
1028,8372;0,220571
1029,8014;0,22096
1030,7656;0,221041
1031,7299;0,220746
1032,6941;0,220023
1033,6583;0,218858
1034,6226;0,217293
1035,5868;0,215422
1036,5510;0,21338
1037,5153;0,211319
1038,4795;0,209379
1039,4437;0,20767
1040,4080;0,206264
1041,3722;0,205187
1042,3364;0,20443
1043,3007;0,203946
1044,2649;0,20366
1045,2291;0,203483
1046,1934;0,203321
1047,1576;0,203097
1048,1218;0,20275
1049,0861;0,202241
1050,0503;0,201543
1051,0145;0,200638
1051,9788;0,199517
1052,9430;0,198184
1053,9072;0,196657
1054,8715;0,194958
1055,8357;0,193097
1056,7999;0,191056
1057,7642;0,188786
1058,7284;0,186231
1059,6926;0,183355
1060,6569;0,18018
1061,6211;0,176791
1062,5853;0,173323
1063,5496;0,169922
1064,5138;0,166707
1065,4780;0,163744
1066,4423;0,161043
1067,4065;0,158576
1068,3707;0,156291
1069,3350;0,15414
1070,2992;0,152078
1071,2634;0,150065
1072,2277;0,148069
1073,1919;0,146056
1074,1561;0,144007
1075,1204;0,141912
1076,0846;0,139786
1077,0488;0,137659
1078,0131;0,135571
1078,9773;0,133571
1079,9415;0,131706
1080,9058;0,130016
1081,8700;0,128533
1082,8342;0,127275
1083,7985;0,126236
1084,7627;0,125394
1085,7269;0,124711
1086,6912;0,12415
1087,6554;0,123681
1088,6196;0,123287
1089,5839;0,122964
1090,5481;0,122714
1091,5123;0,122535
1092,4766;0,122422
1093,4408;0,122365
1094,4050;0,122353
1095,3693;0,122378
1096,3335;0,12243
1097,2977;0,122502
1098,2620;0,122582
1099,2262;0,12266
1100,1904;0,122725
1101,1547;0,122771
1102,1189;0,12279
1103,0831;0,122769
1104,0474;0,122691
1105,0116;0,12254
1105,9758;0,122302
1106,9401;0,121973
1107,9043;0,121556
1108,8685;0,12105
1109,8328;0,120441
1110,7970;0,119698
1111,7612;0,118787
1112,7255;0,117687
1113,6897;0,116413
1114,6539;0,115016
1115,6182;0,113575
1116,5824;0,112169
1117,5466;0,110849
1118,5109;0,109629
1119,4751;0,108482
1120,4393;0,107357
1121,4036;0,106196
1122,3678;0,104944
1123,3320;0,10356
1124,2963;0,102015
1125,2605;0,100299
1126,2247;0,0984202
1127,1890;0,0964088
1128,1532;0,0943098
1129,1174;0,0921749
1130,0817;0,0900509
1131,0459;0,087974
1132,0101;0,0859705
1132,9744;0,0840636
1133,9386;0,0822813
1134,9028;0,0806595
1135,8671;0,0792381
1136,8313;0,0780529
1137,7955;0,0771262
1138,7598;0,0764613
1139,7240;0,0760435
1140,6882;0,075844
1141,6525;0,0758275
1142,6167;0,075959
1143,5809;0,0762081
1144,5452;0,076551
1145,5094;0,0769703
1146,4736;0,0774533
1147,4379;0,0779911
1148,4021;0,0785767
1149,3663;0,0792032
1150,3306;0,079861
1151,2948;0,0805346
1152,2590;0,0812009
1153,2233;0,0818305
1154,1875;0,0823893
1155,1517;0,0828397
1156,1160;0,0831391
1157,0802;0,0832369
1158,0444;0,0830734
1159,0087;0,0825841
1159,9729;0,0817106
1160,9371;0,0804147
1161,9014;0,0786909
1162,8656;0,0765712
1163,8298;0,0741222
1164,7941;0,0714355
1165,7583;0,0686148
1166,7225;0,0657643
1167,6868;0,0629773
1168,6510;0,0603288
1169,6152;0,0578719
1170,5795;0,0556377
1171,5437;0,0536395
1172,5079;0,0518772
1173,4722;0,0503413
1174,4364;0,0490145
1175,4006;0,0478747
1176,3649;0,0468989
1177,3291;0,0460676
1178,2933;0,0453678
1179,2576;0,0447905
1180,2218;0,0443254
1181,1860;0,0439572
1182,1503;0,0436663
1183,1145;0,0434348
1184,0787;0,0432535
1185,0430;0,0431244
1186,0072;0,0430567
1186,9714;0,0430605
1187,9357;0,0431408
1188,8999;0,0432972
1189,8641;0,0435265
1190,8284;0,0438262
1191,7926;0,0441948
1192,7568;0,0446297
1193,7211;0,0451247
1194,6853;0,0456701
1195,6495;0,046254
1196,6138;0,0468653
1197,5780;0,0474931
1198,5422;0,0481263
1199,5065;0,0487373
1200,4707;0,0493472
1201,4349;0,0499291
1202,3992;0,0504783
1203,3634;0,050994
1204,3276;0,0514779
1205,2919;0,051932
1206,2561;0,0523588
1207,2203;0,0527643
1208,1846;0,0531614
1209,1488;0,0535708
1210,1130;0,0540184
1211,0773;0,054528
1212,0415;0,0551144
1213,0057;0,0557788
1213,9700;0,0565103
1214,9342;0,057291
1215,8984;0,0581025
1216,8627;0,0589289
1217,8269;0,0597566
1218,7911;0,0605727
1219,7554;0,0613643
1220,7196;0,0621189
1221,6838;0,0628275
1222,6481;0,0634859
1223,6123;0,0640947
1224,5765;0,0646576
1225,5408;0,0651788
1226,5050;0,0656621
1227,4692;0,0661111
1228,4335;0,0665283
1229,3977;0,0669146
1230,3619;0,0672674
1231,3262;0,0675802
1232,2904;0,0678448
1233,2546;0,0680549
1234,2189;0,0682104
1235,1831;0,0683185
1236,1473;0,0683915
1237,1116;0,0684419
1238,0758;0,0684785
1239,0400;0,0685037
1240,0043;0,0685147
1240,9685;0,068506
1241,9327;0,0684709
1242,8970;0,0684037
1243,8612;0,0682997
1244,8254;0,068156
1245,7897;0,0679727
1246,7539;0,0677536
1247,7181;0,067506
1248,6824;0,06724
1249,6466;0,066966
1250,6108;0,0666933
1251,5751;0,0664283
1252,5393;0,0661747
1253,5035;0,065934
1254,4678;0,065705
1255,4320;0,0654845
1256,3962;0,0652671
1257,3605;0,0650455
1258,3247;0,0648114
1259,2889;0,064557
1260,2532;0,0642756
1261,2174;0,0639627
1262,1816;0,0636151
1263,1459;0,0632311
1264,1101;0,062809
1265,0743;0,0623474
1266,0386;0,061844
1267,0028;0,0612966
1267,9670;0,0607034
1268,9313;0,0600656
1269,8955;0,059389
1270,8597;0,058686
1271,8240;0,057973
1272,7882;0,0572671
1273,7524;0,0565816
1274,7167;0,0559241
1275,6809;0,0552966
1276,6451;0,0546964
1277,6094;0,0541177
1278,5736;0,0535529
1279,5378;0,0529945
1280,5021;0,0524382
1281,4663;0,0518854
1282,4305;0,0513437
1283,3948;0,0508249
1284,3590;0,0503416
1285,3232;0,0499046
1286,2875;0,0495214
1287,2517;0,0491962
1288,2159;0,0489303
1289,1802;0,0487221
1290,1444;0,0485684
1291,1086;0,0484672
1292,0729;0,0484188
1293,0371;0,0484265
1294,0013;0,048494
1294,9656;0,0486233
1295,9298;0,048812
1296,8940;0,0490554
1297,8583;0,0493491
1298,8225;0,0496914
1299,7867;0,0500827
1300,7510;0,0505222
1301,7152;0,0510062
1302,6794;0,0515287
1303,6437;0,0520846
1304,6079;0,0526715
1305,5721;0,053289
1306,5364;0,0539349
1307,5006;0,0546032
1308,4648;0,0552847
1309,4291;0,0559699
1310,3933;0,0566499
1311,3575;0,0573142
1312,3218;0,0579475
1313,2860;0,058528
1314,2502;0,0590306
1315,2145;0,0594316
1316,1787;0,0597113
1317,1429;0,0598571
1318,1072;0,0598672
1319,0714;0,0597554
1320,0356;0,0595517
1320,9999;0,0592953
1321,9641;0,0590227
1322,9283;0,0587597
1323,8926;0,0585208
1324,8568;0,0583117
1325,8210;0,0581332
1326,7853;0,0579821
1327,7495;0,0578511
1328,7137;0,0577288
1329,6780;0,0576009
1330,6422;0,0574534
1331,6064;0,0572764
1332,5707;0,0570659
1333,5349;0,0568213
1334,4991;0,0565391
1335,4634;0,0562061
1336,4276;0,0558
1337,3918;0,0553003
1338,3561;0,0547126
1339,3203;0,0540856
1340,2845;0,0534949
1341,2488;0,052998
1342,2130;0,0526057
1343,1772;0,0522953
1344,1415;0,0520389
1345,1057;0,0518226
1346,0699;0,0516512
1347,0342;0,0515417
1347,9984;0,0515112
1348,9626;0,0515666
1349,9269;0,0517005
1350,8911;0,0518948
1351,8553;0,0521286
1352,8196;0,0523857
1353,7838;0,0526597
1354,7480;0,0529547
1355,7123;0,0532793
1356,6765;0,0536394
1357,6407;0,054033
1358,6050;0,0544518
1359,5692;0,0548849
