TITLE;
DATA TYPE;INFRARED SPECTRUM
ORIGIN;JASCO
OWNER;
DATE;25/03/28
TIME;16:09:16
SPECTROMETER/DATA SYSTEM;
LOCALE;9226
RESOLUTION;
DELTAX;0,964233
XUNITS;1/CM
YUNITS;ABSORBANCE
FIRSTX;  399,1927
LASTX; 4000,6047
NPOINTS;    3736
FIRSTY;     0,23760
MAXY;     0,23844
MINY;    -0,00680
XYDATA
399,1927;0,237603
400,1569;0,235726
401,1211;0,234637
402,0854;0,234199
403,0496;0,233991
404,0138;0,233663
404,9781;0,23309
405,9423;0,232396
406,9065;0,231819
407,8708;0,231518
408,8350;0,231451
409,7992;0,231447
410,7635;0,231375
411,7277;0,231282
412,6919;0,231353
413,6562;0,231757
414,6204;0,232507
415,5846;0,233455
416,5489;0,234349
417,5131;0,234956
418,4773;0,235264
419,4416;0,235578
420,4058;0,236214
421,3700;0,237121
422,3343;0,237969
423,2985;0,23844
424,2627;0,238413
425,2270;0,238025
426,1912;0,237596
427,1554;0,237432
428,1197;0,237618
429,0839;0,237984
430,0481;0,238232
431,0124;0,238147
431,9766;0,237724
432,9408;0,237154
433,9051;0,236667
434,8693;0,236364
435,8335;0,236156
436,7978;0,23586
437,7620;0,235349
438,7262;0,234644
439,6905;0,233891
440,6547;0,233263
441,6189;0,232858
442,5832;0,232641
443,5474;0,232468
444,5116;0,232181
445,4759;0,231719
446,4401;0,231155
447,4043;0,230633
448,3686;0,230279
449,3328;0,230131
450,2970;0,230131
451,2613;0,230171
452,2255;0,230168
453,1897;0,230108
454,1540;0,230035
455,1182;0,22999
456,0824;0,229956
457,0467;0,229845
458,0109;0,229556
458,9751;0,229069
459,9394;0,228483
460,9036;0,227949
461,8678;0,227598
462,8321;0,227501
463,7963;0,22768
464,7605;0,228095
465,7248;0,228634
466,6890;0,229127
467,6532;0,229384
468,6175;0,229253
469,5817;0,228661
470,5459;0,227647
471,5102;0,22638
472,4744;0,225138
473,4386;0,224199
474,4029;0,223718
475,3671;0,223677
476,3313;0,223931
477,2956;0,224288
478,2598;0,224571
479,2240;0,224667
480,1883;0,224561
481,1525;0,224328
482,1167;0,224088
483,0810;0,223942
484,0452;0,223931
485,0094;0,224026
485,9737;0,224168
486,9379;0,224305
487,9021;0,224391
488,8664;0,224384
489,8306;0,224233
490,7948;0,223917
491,7591;0,223486
492,7233;0,223072
493,6875;0,222829
494,6518;0,222841
495,6160;0,223059
496,5802;0,223332
497,5445;0,223494
498,5087;0,223462
499,4729;0,223274
500,4372;0,223067
501,4014;0,222985
502,3656;0,223086
503,3299;0,223305
504,2941;0,223518
505,2583;0,223638
506,2226;0,223665
507,1868;0,223676
508,1510;0,223756
509,1153;0,22394
510,0795;0,224202
511,0437;0,224488
512,0080;0,224757
512,9722;0,22501
513,9365;0,225275
514,9007;0,225582
515,8649;0,225936
516,8292;0,226305
517,7934;0,226621
518,7576;0,226807
519,7219;0,226814
520,6861;0,226639
521,6503;0,226323
522,6146;0,225935
523,5788;0,225554
524,5430;0,225247
525,5073;0,22504
526,4715;0,224902
527,4357;0,224769
528,4000;0,224583
529,3642;0,224322
530,3284;0,223999
531,2927;0,22363
532,2569;0,223219
533,2211;0,222749
534,1854;0,222206
535,1496;0,221592
536,1138;0,220943
537,0781;0,220305
538,0423;0,219722
539,0065;0,21921
539,9708;0,21877
540,9350;0,218396
541,8992;0,218091
542,8635;0,217864
543,8277;0,217726
544,7919;0,21767
545,7562;0,217673
546,7204;0,217707
547,6846;0,217747
548,6489;0,217782
549,6131;0,217808
550,5773;0,217825
551,5416;0,217824
552,5058;0,217798
553,4700;0,217745
554,4343;0,217666
555,3985;0,21755
556,3627;0,217355
557,3270;0,217005
558,2912;0,216412
559,2554;0,215515
560,2197;0,214327
561,1839;0,212951
562,1481;0,211554
563,1124;0,210314
564,0766;0,209344
565,0408;0,208664
566,0051;0,208203
566,9693;0,207847
567,9335;0,207492
568,8978;0,207088
569,8620;0,206646
570,8262;0,206206
571,7905;0,205797
572,7547;0,205418
573,7189;0,205048
574,6832;0,204671
575,6474;0,204299
576,6116;0,203967
577,5759;0,203705
578,5401;0,203506
579,5043;0,203316
580,4686;0,203066
581,4328;0,202709
582,3970;0,202258
583,3613;0,201776
584,3255;0,201335
585,2897;0,200966
586,2540;0,20064
587,2182;0,200302
588,1824;0,199916
589,1467;0,199492
590,1109;0,19908
591,0751;0,198723
592,0394;0,198411
593,0036;0,198077
593,9678;0,197638
594,9321;0,197053
595,8963;0,196349
596,8605;0,195607
597,8248;0,194914
598,7890;0,194325
599,7532;0,193847
600,7175;0,193455
601,6817;0,193116
602,6459;0,192809
603,6102;0,192523
604,5744;0,192243
605,5386;0,191939
606,5029;0,191571
607,4671;0,191106
608,4313;0,190536
609,3956;0,189886
610,3598;0,18921
611,3240;0,188578
612,2883;0,188053
613,2525;0,187668
614,2167;0,187402
615,1810;0,187172
616,1452;0,186841
617,1094;0,18626
618,0737;0,185337
619,0379;0,184085
620,0021;0,182626
620,9664;0,18113
621,9306;0,179765
622,8948;0,17864
623,8591;0,177786
624,8233;0,177118
625,7875;0,176603
626,7518;0,176124
627,7160;0,175603
628,6802;0,175017
629,6445;0,174394
630,6087;0,173778
631,5729;0,173193
632,5372;0,172632
633,5014;0,172066
634,4656;0,171476
635,4299;0,170873
636,3941;0,1703
637,3583;0,169803
638,3226;0,169401
639,2868;0,169077
640,2510;0,168783
641,2153;0,168473
642,1795;0,168127
643,1437;0,167758
644,1080;0,167397
645,0722;0,167069
646,0364;0,166777
647,0007;0,166496
647,9649;0,166189
648,9291;0,165832
649,8934;0,165429
650,8576;0,165022
651,8218;0,164673
652,7861;0,164441
653,7503;0,164355
654,7145;0,164393
655,6788;0,164487
656,6430;0,164549
657,6072;0,164513
658,5715;0,164363
659,5357;0,164113
660,4999;0,163768
661,4642;0,163281
662,4284;0,162544
663,3926;0,161433
664,3569;0,159897
665,3211;0,15811
666,2853;0,156547
667,2496;0,155767
668,2138;0,155767
669,1780;0,155871
670,1423;0,155687
671,1065;0,155245
672,0707;0,15451
673,0350;0,153423
673,9992;0,152056
674,9634;0,150587
675,9277;0,149177
676,8919;0,147884
677,8561;0,146685
678,8204;0,145552
679,7846;0,144496
680,7488;0,143551
681,7131;0,142729
682,6773;0,14199
683,6415;0,141281
684,6058;0,140573
685,5700;0,139885
686,5342;0,13926
687,4985;0,138724
688,4627;0,138281
689,4269;0,137899
690,3912;0,137554
691,3554;0,137241
692,3196;0,136968
693,2839;0,136736
694,2481;0,136527
695,2123;0,136306
696,1766;0,136033
697,1408;0,13567
698,1050;0,135198
699,0693;0,134621
700,0335;0,133965
700,9977;0,133275
701,9620;0,132597
702,9262;0,131964
703,8904;0,131367
704,8547;0,13079
705,8189;0,130205
706,7831;0,129589
707,7474;0,128933
708,7116;0,128238
709,6758;0,127507
710,6401;0,126737
711,6043;0,125922
712,5685;0,125064
713,5328;0,124186
714,4970;0,123336
715,4612;0,121789
716,4255;0,121311
717,3897;0,121007
718,3539;0,120764
719,3182;0,120416
720,2824;0,119823
721,2466;0,118955
722,2109;0,117912
723,1751;0,116866
724,1393;0,115964
725,1036;0,115268
726,0678;0,114745
727,0320;0,114309
727,9963;0,113871
728,9605;0,113382
729,9247;0,112842
730,8890;0,112277
731,8532;0,111722
732,8174;0,111199
733,7817;0,110725
734,7459;0,110313
735,7101;0,109973
736,6744;0,109706
737,6386;0,109494
738,6028;0,109301
739,5671;0,109082
740,5313;0,108802
741,4955;0,10845
742,4598;0,108041
743,4240;0,107604
744,3882;0,107167
745,3525;0,106746
746,3167;0,106345
747,2809;0,105965
748,2452;0,105604
749,2094;0,105265
750,1736;0,104944
751,1379;0,104629
752,1021;0,104298
753,0663;0,103934
754,0306;0,103533
754,9948;0,10311
755,9590;0,10269
756,9233;0,102297
757,8875;0,10194
758,8517;0,101611
759,8160;0,101294
760,7802;0,100975
761,7444;0,100649
762,7087;0,100322
763,6729;0,100003
764,6371;0,099696
765,6014;0,0994004
766,5656;0,0991095
767,5298;0,0988169
768,4941;0,0985193
769,4583;0,0982175
770,4225;0,0979139
771,3868;0,0976101
772,3510;0,097304
773,3152;0,0969886
774,2795;0,0966527
775,2437;0,0962831
776,2079;0,0958705
777,1722;0,0954145
778,1364;0,0949259
779,1006;0,0944226
780,0649;0,093922
781,0291;0,0934326
781,9933;0,0929528
782,9576;0,0924762
783,9218;0,0920017
784,8860;0,0915395
785,8503;0,0911087
786,8145;0,0907267
787,7787;0,0903998
788,7430;0,0901202
789,7072;0,089873
790,6714;0,0896473
791,6357;0,0894429
792,5999;0,0892682
793,5641;0,0891316
794,5284;0,0890339
795,4926;0,0889676
796,4568;0,0889226
797,4211;0,0888936
798,3853;0,0888808
799,3495;0,0888858
800,3138;0,0889053
801,2780;0,0889303
802,2422;0,0889506
803,2065;0,0889606
804,1707;0,088961
805,1349;0,0889529
806,0992;0,08893
807,0634;0,0888761
808,0276;0,0887701
808,9919;0,0885971
809,9561;0,0883554
810,9203;0,0880556
811,8846;0,0877108
812,8488;0,0873278
813,8130;0,0869031
814,7773;0,0864294
815,7415;0,0859058
816,7057;0,0853446
817,6700;0,0847697
818,6342;0,0842074
819,5984;0,0836758
820,5627;0,0831784
821,5269;0,0827052
822,4911;0,0822405
823,4554;0,0817726
824,4196;0,0813017
825,3839;0,0808428
826,3481;0,0804222
827,3123;0,0800678
828,2766;0,0797974
829,2408;0,0796089
830,2050;0,0794785
831,1693;0,0793683
832,1335;0,0792399
833,0977;0,0790687
834,0620;0,0788505
835,0262;0,0785976
835,9904;0,0783271
836,9547;0,0780487
837,9189;0,0777605
838,8831;0,0774535
839,8474;0,0771229
840,8116;0,0767788
841,7758;0,076448
842,7401;0,0761665
843,7043;0,0759675
844,6685;0,0758704
845,6328;0,0758766
846,5970;0,0759743
847,5612;0,0761458
848,5255;0,0763749
849,4897;0,0766497
850,4539;0,0769604
851,4182;0,0772956
852,3824;0,0776387
853,3466;0,077967
854,3109;0,0782541
855,2751;0,0784767
856,2393;0,0786226
857,2036;0,0786976
858,1678;0,0787249
859,1320;0,0787366
860,0963;0,0787601
861,0605;0,0788046
862,0247;0,0788588
862,9890;0,0788993
863,9532;0,0789066
864,9174;0,0788778
865,8817;0,0788284
866,8459;0,0787834
867,8101;0,0787641
868,7744;0,0787804
869,7386;0,0788314
870,7028;0,0789123
871,6671;0,07902
872,6313;0,0791539
873,5955;0,0793124
874,5598;0,0794898
875,5240;0,0796782
876,4882;0,0798729
877,4525;0,0800772
878,4167;0,0803019
879,3809;0,0805591
880,3452;0,080855
881,3094;0,0811864
882,2736;0,0815438
883,2379;0,0819187
884,2021;0,0823099
885,1663;0,0827236
886,1306;0,0831682
887,0948;0,0836458
888,0590;0,0841472
889,0233;0,0846532
889,9875;0,0851403
890,9517;0,0855869
891,9160;0,0859748
892,8802;0,0862864
893,8444;0,0864999
894,8087;0,0865901
895,7729;0,0865341
896,7371;0,086322
897,7014;0,0859649
898,6656;0,0854939
899,6298;0,0849502
900,5941;0,0843704
901,5583;0,0837748
902,5225;0,0831659
903,4868;0,0825366
904,4510;0,0818838
905,4152;0,0812194
906,3795;0,0805728
907,3437;0,0799833
908,3079;0,079487
909,2722;0,0791039
910,2364;0,0788326
911,2007;0,0786531
912,1649;0,0785369
913,1292;0,0784587
914,0934;0,0784057
915,0576;0,0783817
916,0219;0,0784031
916,9861;0,0784913
917,9503;0,0786609
918,9146;0,0789114
919,8788;0,0792236
920,8430;0,0795668
921,8073;0,0799109
922,7715;0,0802415
923,7357;0,0805661
924,7000;0,0809105
925,6642;0,0813048
926,6284;0,081768
927,5927;0,0823001
928,5569;0,0828846
929,5211;0,0834984
930,4854;0,0841224
931,4496;0,084746
932,4138;0,0853673
933,3781;0,0859897
934,3423;0,0866211
935,3065;0,0872739
936,2708;0,0879642
937,2350;0,0887064
938,1992;0,0895069
939,1635;0,090359
940,1277;0,0912447
941,0919;0,0921416
942,0562;0,0930311
943,0204;0,0939036
943,9846;0,0947586
944,9489;0,0956019
945,9131;0,0964428
946,8773;0,0972938
947,8416;0,0981699
948,8058;0,0990866
949,7700;0,100057
950,7343;0,101087
951,6985;0,102179
952,6627;0,103329
953,6270;0,104533
954,5912;0,105791
955,5554;0,1071
956,5197;0,108459
957,4839;0,109865
958,4481;0,111309
959,4124;0,112779
960,3766;0,114259
961,3408;0,115728
962,3051;0,117169
963,2693;0,118573
964,2335;0,119949
965,1978;0,121323
966,1620;0,122723
967,1262;0,124173
968,0905;0,125677
969,0547;0,127225
970,0189;0,128805
970,9832;0,130415
971,9474;0,132072
972,9116;0,133811
973,8759;0,135664
974,8401;0,137656
975,8043;0,139799
976,7686;0,142095
977,7328;0,144544
978,6970;0,147146
979,6613;0,149893
980,6255;0,152757
981,5897;0,155687
982,5540;0,158616
983,5182;0,161477
984,4824;0,164224
985,4467;0,166838
986,4109;0,169325
987,3751;0,171706
988,3394;0,173997
989,3036;0,176211
990,2678;0,178358
991,2321;0,180449
992,1963;0,182499
993,1605;0,184521
994,1248;0,186522
995,0890;0,188502
996,0532;0,19045
997,0175;0,192358
997,9817;0,194218
998,9459;0,196032
999,9102;0,197802
1000,8744;0,199534
1001,8386;0,201232
1002,8029;0,202899
1003,7671;0,204537
1004,7313;0,206149
1005,6956;0,207743
1006,6598;0,209334
1007,6240;0,210945
1008,5883;0,212603
1009,5525;0,214326
1010,5167;0,216118
1011,4810;0,217964
1012,4452;0,219833
1013,4094;0,221686
1014,3737;0,223485
1015,3379;0,225196
1016,3021;0,226793
1017,2664;0,228254
1018,2306;0,229567
1019,1948;0,23072
1020,1591;0,231711
1021,1233;0,232538
1022,0875;0,2332
1023,0518;0,233693
1024,0160;0,23401
1024,9802;0,234144
1025,9445;0,234092
1026,9087;0,233851
1027,8729;0,233417
1028,8372;0,232775
1029,8014;0,2319
1030,7656;0,230759
1031,7299;0,229323
1032,6941;0,227576
1033,6583;0,225536
1034,6226;0,223257
1035,5868;0,220828
1036,5510;0,218364
1037,5153;0,21598
1038,4795;0,21378
1039,4437;0,211833
1040,4080;0,210176
1041,3722;0,208809
1042,3364;0,207706
1043,3007;0,206823
1044,2649;0,206103
1045,2291;0,205482
1046,1934;0,204898
1047,1576;0,204291
1048,1218;0,203611
1049,0861;0,202821
1050,0503;0,201895
1051,0145;0,200824
1051,9788;0,19961
1052,9430;0,198262
1053,9072;0,196793
1054,8715;0,195213
1055,8357;0,193526
1056,7999;0,19172
1057,7642;0,189772
1058,7284;0,187656
1059,6926;0,185357
1060,6569;0,182883
1061,6211;0,180273
1062,5853;0,177592
1063,5496;0,174917
1064,5138;0,172319
1065,4780;0,169844
1066,4423;0,167505
1067,4065;0,165284
1068,3707;0,163147
1069,3350;0,161054
1070,2992;0,158976
1071,2634;0,156898
1072,2277;0,154821
1073,1919;0,152748
1074,1561;0,150684
1075,1204;0,148634
1076,0846;0,146607
1077,0488;0,144624
1078,0131;0,142717
1078,9773;0,140927
1079,9415;0,13929
1080,9058;0,137831
1081,8700;0,136552
1082,8342;0,135439
1083,7985;0,134461
1084,7627;0,133576
1085,7269;0,132741
1086,6912;0,131918
1087,6554;0,131081
1088,6196;0,130217
1089,5839;0,129326
1090,5481;0,128411
1091,5123;0,127471
1092,4766;0,126503
1093,4408;0,125503
1094,4050;0,124478
1095,3693;0,123448
1096,3335;0,122443
1097,2977;0,121492
1098,2620;0,120617
1099,2262;0,119823
1100,1904;0,119101
1101,1547;0,11844
1102,1189;0,117826
1103,0831;0,117244
1104,0474;0,116678
1105,0116;0,116111
1105,9758;0,115519
1106,9401;0,11488
1107,9043;0,114173
1108,8685;0,11338
1109,8328;0,112484
1110,7970;0,111473
1111,7612;0,110342
1112,7255;0,109097
1113,6897;0,107762
1114,6539;0,106379
1115,6182;0,104996
1116,5824;0,10366
1117,5466;0,102407
1118,5109;0,10125
1119,4751;0,100185
1120,4393;0,0991907
1121,4036;0,0982346
1122,3678;0,0972833
1123,3320;0,0963075
1124,2963;0,0952885
1125,2605;0,0942235
1126,2247;0,0931268
1127,1890;0,0920272
1128,1532;0,0909604
1129,1174;0,0899603
1130,0817;0,0890517
1131,0459;0,0882476
1132,0101;0,0875511
1132,9744;0,0869599
1133,9386;0,08647
1134,9028;0,0860772
1135,8671;0,0857754
1136,8313;0,0855545
1137,7955;0,0853982
1138,7598;0,0852855
1139,7240;0,0851927
1140,6882;0,0850985
1141,6525;0,084988
1142,6167;0,0848551
1143,5809;0,0847037
1144,5452;0,0845464
1145,5094;0,0844032
1146,4736;0,0842986
1147,4379;0,0842582
1148,4021;0,0843048
1149,3663;0,0844526
1150,3306;0,0847027
1151,2948;0,0850403
1152,2590;0,0854351
1153,2233;0,0858443
1154,1875;0,0862174
1155,1517;0,0865004
1156,1160;0,0866394
1157,0802;0,0865838
1158,0444;0,0862878
1159,0087;0,0857115
1159,9729;0,0848225
1160,9371;0,0835979
1161,9014;0,0820289
1162,8656;0,0801271
1163,8298;0,0779299
1164,7941;0,0755004
1165,7583;0,0729221
1166,7225;0,0702868
1167,6868;0,0676808
1168,6510;0,0651733
1169,6152;0,062811
1170,5795;0,060619
1171,5437;0,0586061
1172,5079;0,0567717
1173,4722;0,0551106
1174,4364;0,0536151
1175,4006;0,0522756
1176,3649;0,051082
1177,3291;0,0500256
1178,2933;0,0491018
1179,2576;0,048312
1180,2218;0,0476615
1181,1860;0,0471563
1182,1503;0,046799
1183,1145;0,0465864
1184,0787;0,0465098
1185,0430;0,0465565
1186,0072;0,0467126
1186,9714;0,0469649
1187,9357;0,0473031
1188,8999;0,0477209
1189,8641;0,0482163
1190,8284;0,0487902
1191,7926;0,0494437
1192,7568;0,050176
1193,7211;0,0509832
1194,6853;0,0518588
1195,6495;0,0527936
1196,6138;0,0537754
1197,5780;0,0547885
1198,5422;0,0558139
1199,5065;0,0566848
1200,4707;0,0577017
1201,4349;0,0586936
1202,3992;0,0596592
1203,3634;0,0605983
1204,3276;0,0615053
1205,2919;0,0623683
1206,2561;0,063173
1207,2203;0,0639111
1208,1846;0,0645856
1209,1488;0,0652106
1210,1130;0,0658052
1211,0773;0,0663855
1212,0415;0,0669595
1213,0057;0,0675273
1213,9700;0,0680842
1214,9342;0,068625
1215,8984;0,0691456
1216,8627;0,0696424
1217,8269;0,0701114
1218,7911;0,0705499
1219,7554;0,0709571
1220,7196;0,0713328
1221,6838;0,0716762
1222,6481;0,0719834
1223,6123;0,0722462
1224,5765;0,0724536
1225,5408;0,072595
1226,5050;0,0726643
1227,4692;0,0726617
1228,4335;0,072593
1229,3977;0,0724672
1230,3619;0,0722937
1231,3262;0,0720807
1232,2904;0,0718359
1233,2546;0,071568
1234,2189;0,0712899
1235,1831;0,0710189
1236,1473;0,0707758
1237,1116;0,0705815
1238,0758;0,0704518
1239,0400;0,0703942
1240,0043;0,0704075
1240,9685;0,0704843
1241,9327;0,070616
1242,8970;0,0707963
1243,8612;0,0710225
1244,8254;0,0712946
1245,7897;0,0716125
1246,7539;0,0719738
1247,7181;0,0723743
1248,6824;0,07281
1249,6466;0,0732796
1250,6108;0,0737856
1251,5751;0,0743318
1252,5393;0,0749194
1253,5035;0,0755433
1254,4678;0,0761903
1255,4320;0,0768404
1256,3962;0,07747
1257,3605;0,0780547
1258,3247;0,0785708
1259,2889;0,078997
1260,2532;0,0793156
1261,2174;0,0795139
1262,1816;0,079584
1263,1459;0,0795225
1264,1101;0,0793288
1265,0743;0,079004
1266,0386;0,0785505
1267,0028;0,0779704
1267,9670;0,0772646
1268,9313;0,0764327
1269,8955;0,0754759
1270,8597;0,0744014
1271,8240;0,0732266
1272,7882;0,0719785
1273,7524;0,07069
1274,7167;0,0693928
1275,6809;0,0681124
1276,6451;0,0668653
1277,6094;0,0656584
1278,5736;0,0644908
1279,5378;0,0633579
1280,5021;0,0622566
1281,4663;0,0611897
1282,4305;0,060168
1283,3948;0,0592058
1284,3590;0,0583161
1285,3232;0,0575049
1286,2875;0,0567708
1287,2517;0,0561087
1288,2159;0,0555143
1289,1802;0,054988
1290,1444;0,0545333
1291,1086;0,0541539
1292,0729;0,0538506
1293,0371;0,0536202
1294,0013;0,0534581
1294,9656;0,0533593
1295,9298;0,0533199
1296,8940;0,0533362
1297,8583;0,0534032
1298,8225;0,0535142
1299,7867;0,0536623
1300,7510;0,0538418
1301,7152;0,0540517
1302,6794;0,0542928
1303,6437;0,0545658
1304,6079;0,0548695
1305,5721;0,0551999
1306,5364;0,0555508
1307,5006;0,0559177
1308,4648;0,0562989
1309,4291;0,0566935
1310,3933;0,0570964
1311,3575;0,0574938
1312,3218;0,0578628
1313,2860;0,0581767
1314,2502;0,0584117
1315,2145;0,0585498
1316,1787;0,0585779
1317,1429;0,058486
1318,1072;0,0582712
1319,0714;0,0579461
1320,0356;0,0575427
1320,9999;0,0571066
1321,9641;0,0566818
1322,9283;0,0562993
1323,8926;0,055974
1324,8568;0,0557097
1325,8210;0,055505
1326,7853;0,0553566
1327,7495;0,05526
1328,7137;0,0552089
1329,6780;0,0551945
1330,6422;0,0552084
1331,6064;0,0552458
1332,5707;0,0553071
1333,5349;0,0553981
1334,4991;0,0555218
1335,4634;0,0556693
1336,4276;0,0558088
1337,3918;0,0558803
1338,3561;0,0558118
1339,3203;0,0555633
1340,2845;0,055169
1341,2488;0,0547218
1342,2130;0,0543143
1343,1772;0,0539962
1344,1415;0,0537757
1345,1057;0,0536406
1346,0699;0,0535752
1347,0342;0,0535672
1347,9984;0,0536119
1348,9626;0,0537108
1349,9269;0,0538673
1350,8911;0,05408
1351,8553;0,0543389
1352,8196;0,0546266
1353,7838;0,0549247
1354,7480;0,0552225
1355,7123;0,0555223
1356,6765;0,0558373
1357,6407;0,0561832
1358,6050;0,0565698
1359,5692;0,0569944
1360,5334;0,057432
