TITLE;
DATA TYPE;INFRARED SPECTRUM
ORIGIN;JASCO
OWNER;
DATE;25/03/28
TIME;16:23:50
SPECTROMETER/DATA SYSTEM;
LOCALE;9226
RESOLUTION;
DELTAX;0,964233
XUNITS;1/CM
YUNITS;ABSORBANCE
FIRSTX;  399,1927
LASTX; 4000,6047
NPOINTS;    3736
FIRSTY;     0,24537
MAXY;     0,24537
MINY;    -0,00920
XYDATA
399,1927;0,245366
400,1569;0,242244
401,1211;0,239982
402,0854;0,238686
403,0496;0,237883
404,0138;0,236967
404,9781;0,235519
405,9423;0,233516
406,9065;0,231328
407,8708;0,229469
408,8350;0,228273
409,7992;0,227762
410,7635;0,227749
411,7277;0,22806
412,6919;0,228674
413,6562;0,229683
414,6204;0,231157
415,5846;0,233024
416,5489;0,234988
417,5131;0,236511
418,4773;0,237022
419,4416;0,236464
420,4058;0,23544
421,3700;0,23455
422,3343;0,23392
423,2985;0,233396
424,2627;0,232861
425,2270;0,23237
426,1912;0,232089
427,1554;0,232113
428,1197;0,232321
429,0839;0,232406
430,0481;0,232049
431,0124;0,231132
431,9766;0,229835
432,9408;0,228558
433,9051;0,227705
434,8693;0,22746
435,8335;0,227715
436,7978;0,228161
437,7620;0,228495
438,7262;0,228564
439,6905;0,228375
440,6547;0,227991
441,6189;0,22743
442,5832;0,226637
443,5474;0,225566
444,5116;0,224285
445,4759;0,223011
446,4401;0,222009
447,4043;0,221456
448,3686;0,221353
449,3328;0,22154
450,2970;0,221794
451,2613;0,221952
452,2255;0,221998
453,1897;0,222031
454,1540;0,222161
455,1182;0,222394
456,0824;0,222588
457,0467;0,222511
458,0109;0,221997
458,9751;0,221112
459,9394;0,220129
460,9036;0,219348
461,8678;0,218952
462,8321;0,21898
463,7963;0,219364
464,7605;0,219958
465,7248;0,22057
466,6890;0,221015
467,6532;0,221175
468,6175;0,221017
469,5817;0,220578
470,5459;0,21993
471,5102;0,219158
472,4744;0,218339
473,4386;0,217531
474,4029;0,216759
475,3671;0,216032
476,3313;0,215379
477,2956;0,21486
478,2598;0,214556
479,2240;0,214523
480,1883;0,214724
481,1525;0,215005
482,1167;0,215131
483,0810;0,214894
484,0452;0,214242
485,0094;0,213334
485,9737;0,212452
486,9379;0,211835
487,9021;0,211551
488,8664;0,211494
489,8306;0,211475
490,7948;0,211323
491,7591;0,210968
492,7233;0,210462
493,6875;0,209935
494,6518;0,20952
495,6160;0,209296
496,5802;0,209281
497,5445;0,209441
498,5087;0,209715
499,4729;0,210024
500,4372;0,210279
501,4014;0,210399
502,3656;0,210334
503,3299;0,210092
504,2941;0,209749
505,2583;0,209414
506,2226;0,209204
507,1868;0,209192
508,1510;0,209379
509,1153;0,209692
510,0795;0,21002
511,0437;0,210277
512,0080;0,210449
512,9722;0,210593
513,9365;0,210796
514,9007;0,211115
515,8649;0,211536
516,8292;0,211967
517,7934;0,212286
518,7576;0,212409
519,7219;0,21234
520,6861;0,212151
521,6503;0,211928
522,6146;0,211728
523,5788;0,211567
524,5430;0,211428
525,5073;0,211267
526,4715;0,211033
527,4357;0,210682
528,4000;0,210202
529,3642;0,209616
530,3284;0,208982
531,2927;0,208371
532,2569;0,207844
533,2211;0,207416
534,1854;0,20705
535,1496;0,206668
536,1138;0,2062
537,0781;0,205623
538,0423;0,204979
539,0065;0,204357
539,9708;0,203848
540,9350;0,203504
541,8992;0,203318
542,8635;0,203224
543,8277;0,203123
544,7919;0,202918
545,7562;0,202557
546,7204;0,202058
547,6846;0,201517
548,6489;0,201064
549,6131;0,200807
550,5773;0,200772
551,5416;0,200888
552,5058;0,201022
553,4700;0,201036
554,4343;0,200838
555,3985;0,200399
556,3627;0,19974
557,3270;0,198897
558,2912;0,197895
559,2554;0,196752
560,2197;0,195505
561,1839;0,194221
562,1481;0,192997
563,1124;0,191928
564,0766;0,191075
565,0408;0,190438
566,0051;0,189953
566,9693;0,18952
567,9335;0,189044
568,8978;0,188479
569,8620;0,187852
570,8262;0,187234
571,7905;0,186698
572,7547;0,186272
573,7189;0,185925
574,6832;0,185594
575,6474;0,185224
576,6116;0,184808
577,5759;0,184387
578,5401;0,184016
579,5043;0,183712
580,4686;0,183444
581,4328;0,183153
582,3970;0,182791
583,3613;0,182355
584,3255;0,181884
585,2897;0,181432
586,2540;0,181033
587,2182;0,180696
588,1824;0,180409
589,1467;0,180158
590,1109;0,179922
591,0751;0,179665
592,0394;0,179338
593,0036;0,178895
593,9678;0,178325
594,9321;0,177667
595,8963;0,176991
596,8605;0,176359
597,8248;0,175801
598,7890;0,175302
599,7532;0,17483
600,7175;0,174358
601,6817;0,17389
602,6459;0,173451
603,6102;0,173061
604,5744;0,172727
605,5386;0,172433
606,5029;0,172148
607,4671;0,171834
608,4313;0,171449
609,3956;0,170958
610,3598;0,170355
611,3240;0,169691
612,2883;0,169066
613,2525;0,168587
614,2167;0,168306
615,1810;0,168157
616,1452;0,167957
617,1094;0,16748
618,0737;0,166589
619,0379;0,165318
620,0021;0,163854
620,9664;0,162427
621,9306;0,161203
622,8948;0,160237
623,8591;0,159484
624,8233;0,158805
625,7875;0,158211
626,7518;0,157653
627,7160;0,157119
628,6802;0,15661
629,6445;0,156136
630,6087;0,155697
631,5729;0,155285
632,5372;0,15488
633,5014;0,154461
634,4656;0,15401
635,4299;0,153536
636,3941;0,153068
637,3583;0,152644
638,3226;0,152288
639,2868;0,151998
640,2510;0,151747
641,2153;0,151509
642,1795;0,151277
643,1437;0,151063
644,1080;0,150883
645,0722;0,150732
646,0364;0,150578
647,0007;0,150379
647,9649;0,150108
648,9291;0,149778
649,8934;0,149434
650,8576;0,149133
651,8218;0,148912
652,7861;0,148777
653,7503;0,148707
654,7145;0,148661
655,6788;0,148594
656,6430;0,148461
657,6072;0,148241
658,5715;0,147932
659,5357;0,14755
660,4999;0,147091
661,4642;0,146497
662,4284;0,145648
663,3926;0,144396
664,3569;0,142694
665,3211;0,140788
666,2853;0,139324
667,2496;0,139012
668,2138;0,139694
669,1780;0,140283
670,1423;0,140283
671,1065;0,139903
672,0707;0,139203
673,0350;0,138133
673,9992;0,136782
674,9634;0,135369
675,9277;0,134083
676,8919;0,132969
677,8561;0,131951
678,8204;0,130943
679,7846;0,12992
680,7488;0,128913
681,7131;0,12797
682,6773;0,127109
683,6415;0,126328
684,6058;0,125617
685,5700;0,124977
686,5342;0,124406
687,4985;0,123891
688,4627;0,123419
689,4269;0,122974
690,3912;0,122561
691,3554;0,122199
692,3196;0,121894
693,2839;0,121623
694,2481;0,121334
695,2123;0,120973
696,1766;0,12051
697,1408;0,119945
698,1050;0,119304
699,0693;0,118618
700,0335;0,11792
700,9977;0,117235
701,9620;0,116582
702,9262;0,115971
703,8904;0,115382
704,8547;0,114803
705,8189;0,11421
706,7831;0,113581
707,7474;0,112904
708,7116;0,112177
709,6758;0,111408
710,6401;0,110602
711,6043;0,109764
712,5685;0,108909
713,5328;0,10807
714,4970;0,107308
715,4612;0,105639
716,4255;0,105432
717,3897;0,105467
718,3539;0,105568
719,3182;0,105478
720,2824;0,104979
721,2466;0,104028
722,2109;0,102783
723,1751;0,101512
724,1393;0,100452
725,1036;0,0997008
726,0678;0,0992121
727,0320;0,0988501
727,9963;0,0984772
728,9605;0,0980214
729,9247;0,0974907
730,8890;0,09694
731,8532;0,0964233
732,8174;0,095964
733,7817;0,0955561
734,7459;0,095184
735,7101;0,0948404
736,6744;0,0945294
737,6386;0,0942558
738,6028;0,0940124
739,5671;0,0937772
740,5313;0,093523
741,4955;0,0932326
742,4598;0,0929075
743,4240;0,0925647
744,3882;0,0922229
745,3525;0,0918884
746,3167;0,0915522
747,2809;0,0911987
748,2452;0,0908203
749,2094;0,0904269
750,1736;0,0900421
751,1379;0,0896902
752,1021;0,0893808
753,0663;0,0891031
754,0306;0,0888322
754,9948;0,0885432
755,9590;0,0882237
756,9233;0,0878781
757,8875;0,0875219
758,8517;0,087172
759,8160;0,0868396
760,7802;0,0865298
761,7444;0,0862449
762,7087;0,0859882
763,6729;0,085762
764,6371;0,0855625
765,6014;0,0853743
766,5656;0,0851729
767,5298;0,0849341
768,4941;0,0846473
769,4583;0,0843231
770,4225;0,0839886
771,3868;0,083674
772,3510;0,0833958
773,3152;0,0831484
774,2795;0,0829074
775,2437;0,0826419
776,2079;0,0823283
777,1722;0,0819574
778,1364;0,0815347
779,1006;0,0810744
780,0649;0,0805938
781,0291;0,0801091
781,9933;0,0796341
782,9576;0,0791791
783,9218;0,0787492
784,8860;0,0783441
785,8503;0,0779594
786,8145;0,0775906
787,7787;0,0772372
788,7430;0,0769062
789,7072;0,076611
790,6714;0,0763662
791,6357;0,0761809
792,5999;0,0760531
793,5641;0,0759702
794,5284;0,0759142
795,4926;0,0758691
796,4568;0,0758266
797,4211;0,075785
798,3853;0,0757443
799,3495;0,0757018
800,3138;0,075652
801,2780;0,0755918
802,2422;0,0755249
803,2065;0,0754608
804,1707;0,0754059
805,1349;0,0753553
806,0992;0,075291
807,0634;0,0751906
808,0276;0,0750405
808,9919;0,0748435
809,9561;0,074613
810,9203;0,0743594
811,8846;0,0740772
812,8488;0,0737452
813,8130;0,0733395
814,7773;0,0728515
815,7415;0,0722968
816,7057;0,0717101
817,6700;0,0711297
818,6342;0,070582
819,5984;0,0700747
820,5627;0,069601
821,5269;0,0691485
822,4911;0,0687074
823,4554;0,0682742
824,4196;0,0678519
825,3839;0,0674486
826,3481;0,0670759
827,3123;0,0667463
828,2766;0,0664683
829,2408;0,0662418
830,2050;0,0660559
831,1693;0,0658916
832,1335;0,0657289
833,0977;0,0655549
834,0620;0,0653668
835,0262;0,0651689
835,9904;0,0649661
836,9547;0,0647568
837,9189;0,0645333
838,8831;0,064288
839,8474;0,0640236
840,8116;0,0637593
841,7758;0,0635275
842,7401;0,0633628
843,7043;0,0632883
844,6685;0,063308
845,6328;0,0634084
846,5970;0,0635694
847,5612;0,0637752
848,5255;0,0640189
849,4897;0,0642994
850,4539;0,0646121
851,4182;0,0649425
852,3824;0,0652659
853,3466;0,0655535
854,3109;0,0657821
855,2751;0,0659408
856,2393;0,0660327
857,2036;0,0660722
858,1678;0,0660785
859,1320;0,0660695
860,0963;0,0660571
861,0605;0,0660453
862,0247;0,0660314
862,9890;0,0660105
863,9532;0,0659783
864,9174;0,0659336
865,8817;0,0658771
866,8459;0,06581
867,8101;0,065734
868,7744;0,0656539
869,7386;0,0655801
870,7028;0,0655277
871,6671;0,0655115
872,6313;0,0655388
873,5955;0,065606
874,5598;0,0657018
875,5240;0,0658149
876,4882;0,0659415
877,4525;0,0660857
878,4167;0,0662529
879,3809;0,066442
880,3452;0,0666437
881,3094;0,0668471
882,2736;0,0670507
883,2379;0,0672698
884,2021;0,0675324
885,1663;0,0678667
886,1306;0,0682846
887,0948;0,0687737
888,0590;0,0693004
889,0233;0,0698227
889,9875;0,0703044
890,9517;0,0707245
891,9160;0,0710759
892,8802;0,0713571
893,8444;0,0715636
894,8087;0,0716837
895,7729;0,0717017
896,7371;0,0716073
897,7014;0,0714033
898,6656;0,0711075
899,6298;0,0707475
900,5941;0,0703502
901,5583;0,0699341
902,5225;0,0695062
903,4868;0,0690665
904,4510;0,0686159
905,4152;0,0681624
906,3795;0,0677229
907,3437;0,0673209
908,3079;0,0669805
909,2722;0,0667194
910,2364;0,0665425
911,2007;0,0664397
912,1649;0,0663883
913,1292;0,0663616
914,0934;0,0663413
915,0576;0,0663262
916,0219;0,0663331
916,9861;0,0663862
917,9503;0,0665024
918,9146;0,0666794
919,8788;0,0668962
920,8430;0,0671249
921,8073;0,067347
922,7715;0,0675641
923,7357;0,0677951
924,7000;0,0680641
925,6642;0,0683858
926,6284;0,0687577
927,5927;0,0691637
928,5569;0,0695842
929,5211;0,0700069
930,4854;0,0704316
931,4496;0,0708681
932,4138;0,071329
933,3781;0,0718233
934,3423;0,0723521
935,3065;0,072909
936,2708;0,0734832
937,2350;0,0740649
938,1992;0,0746497
939,1635;0,0752417
940,1277;0,0758513
941,0919;0,0764902
942,0562;0,0771636
943,0204;0,0778665
943,9846;0,0785844
944,9489;0,0793017
945,9131;0,0800103
946,8773;0,080716
947,8416;0,0814367
948,8058;0,0821935
949,7700;0,0830013
950,7343;0,0838631
951,6985;0,0847723
952,6627;0,0857206
953,6270;0,0867063
954,5912;0,0877373
955,5554;0,0888269
956,5197;0,089984
957,4839;0,0912051
958,4481;0,0924715
959,4124;0,0937541
960,3766;0,0950235
961,3408;0,0962603
962,3051;0,0974601
963,2693;0,0986315
964,2335;0,0997907
965,1978;0,100954
966,1620;0,102135
967,1262;0,103341
968,0905;0,104577
969,0547;0,105845
970,0189;0,107152
970,9832;0,108507
971,9474;0,10993
972,9116;0,111445
973,8759;0,113079
974,8401;0,114852
975,8043;0,116777
976,7686;0,118851
977,7328;0,121068
978,6970;0,123413
979,6613;0,12587
980,6255;0,128414
981,5897;0,131009
982,5540;0,133607
983,5182;0,136162
984,4824;0,138638
985,4467;0,141021
986,4109;0,143313
987,3751;0,14553
988,3394;0,147684
989,3036;0,149778
990,2678;0,151808
991,2321;0,153768
992,1963;0,155658
993,1605;0,15748
994,1248;0,159247
995,0890;0,160966
996,0532;0,162647
997,0175;0,164291
997,9817;0,165903
998,9459;0,167487
999,9102;0,169052
1000,8744;0,170608
1001,8386;0,172162
1002,8029;0,173714
1003,7671;0,175253
1004,7313;0,176764
1005,6956;0,178235
1006,6598;0,179667
1007,6240;0,181077
1008,5883;0,182495
1009,5525;0,183952
1010,5167;0,18547
1011,4810;0,187046
1012,4452;0,188654
1013,4094;0,19025
1014,3737;0,19178
1015,3379;0,193202
1016,3021;0,194488
1017,2664;0,195629
1018,2306;0,196625
1019,1948;0,197479
1020,1591;0,198189
1021,1233;0,19875
1022,0875;0,199155
1023,0518;0,199405
1024,0160;0,199505
1024,9802;0,199465
1025,9445;0,199289
1026,9087;0,198968
1027,8729;0,198487
1028,8372;0,197817
1029,8014;0,196931
1030,7656;0,195801
1031,7299;0,194407
1032,6941;0,192747
1033,6583;0,190842
1034,6226;0,188742
1035,5868;0,186527
1036,5510;0,184293
1037,5153;0,182142
1038,4795;0,180157
1039,4437;0,178396
1040,4080;0,176886
1041,3722;0,175622
1042,3364;0,174578
1043,3007;0,173708
1044,2649;0,172957
1045,2291;0,172265
1046,1934;0,171576
1047,1576;0,170847
1048,1218;0,170048
1049,0861;0,169162
1050,0503;0,168184
1051,0145;0,167112
1051,9788;0,165949
1052,9430;0,164703
1053,9072;0,163385
1054,8715;0,162004
1055,8357;0,16056
1056,7999;0,15904
1057,7642;0,157418
1058,7284;0,155668
1059,6926;0,153781
1060,6569;0,151772
1061,6211;0,149682
1062,5853;0,147566
1063,5496;0,145477
1064,5138;0,143453
1065,4780;0,141509
1066,4423;0,139641
1067,4065;0,137835
1068,3707;0,136069
1069,3350;0,134326
1070,2992;0,132591
1071,2634;0,130854
1072,2277;0,129113
1073,1919;0,127367
1074,1561;0,125615
1075,1204;0,123861
1076,0846;0,12211
1077,0488;0,120381
1078,0131;0,118706
1078,9773;0,117128
1079,9415;0,115694
1080,9058;0,114439
1081,8700;0,113376
1082,8342;0,112488
1083,7985;0,111736
1084,7627;0,111068
1085,7269;0,110432
1086,6912;0,109792
1087,6554;0,109131
1088,6196;0,108448
1089,5839;0,10775
1090,5481;0,107042
1091,5123;0,106316
1092,4766;0,105555
1093,4408;0,104745
1094,4050;0,103886
1095,3693;0,102998
1096,3335;0,102117
1097,2977;0,10128
1098,2620;0,10051
1099,2262;0,0998084
1100,1904;0,0991585
1101,1547;0,0985372
1102,1189;0,0979267
1103,0831;0,0973193
1104,0474;0,0967139
1105,0116;0,0961095
1105,9758;0,0955004
1106,9401;0,0948754
1107,9043;0,0942212
1108,8685;0,0935253
1109,8328;0,0927765
1110,7970;0,0919646
1111,7612;0,0910808
1112,7255;0,0901215
1113,6897;0,0890916
1114,6539;0,0880076
1115,6182;0,0868955
1116,5824;0,0857853
1117,5466;0,0847041
1118,5109;0,0836705
1119,4751;0,0826912
1120,4393;0,0817599
1121,4036;0,0808592
1122,3678;0,0799647
1123,3320;0,0790528
1124,2963;0,0781083
1125,2605;0,0771303
1126,2247;0,0761328
1127,1890;0,0751391
1128,1532;0,0741748
1129,1174;0,0732618
1130,0817;0,072416
1131,0459;0,0716477
1132,0101;0,0709636
1132,9744;0,0703666
1133,9386;0,0698561
1134,9028;0,069429
1135,8671;0,0690809
1136,8313;0,0688072
1137,7955;0,0686017
1138,7598;0,068453
1139,7240;0,0683418
1140,6882;0,0682426
1141,6525;0,0681302
1142,6167;0,0679884
1143,5809;0,0678167
1144,5452;0,0676315
1145,5094;0,0674599
1146,4736;0,0673313
1147,4379;0,0672695
1148,4021;0,0672872
1149,3663;0,0673846
1150,3306;0,0675511
1151,2948;0,0677686
1152,2590;0,0680143
1153,2233;0,0682626
1154,1875;0,0684833
1155,1517;0,0686394
1156,1160;0,0686852
1157,0802;0,0685688
1158,0444;0,068239
1159,0087;0,0676533
1159,9729;0,0667856
1160,9371;0,0656288
1161,9014;0,064195
1162,8656;0,0625137
1163,8298;0,0606293
1164,7941;0,0585979
1165,7583;0,0564834
1166,7225;0,05435
1167,6868;0,0522561
1168,6510;0,0502482
1169,6152;0,0483593
1170,5795;0,0466101
1171,5437;0,0450108
1172,5079;0,0435638
1173,4722;0,0422653
1174,4364;0,0411067
1175,4006;0,0400772
1176,3649;0,0391667
1177,3291;0,0383681
1178,2933;0,0376788
1179,2576;0,0370988
1180,2218;0,0366283
1181,1860;0,0362659
1182,1503;0,0360073
1183,1145;0,0358468
1184,0787;0,0357789
1185,0430;0,0357995
1186,0072;0,0359058
1186,9714;0,0360948
1187,9357;0,0363624
1188,8999;0,0367032
1189,8641;0,0371105
1190,8284;0,0375778
1191,7926;0,0380985
1192,7568;0,0386672
1193,7211;0,0392797
1194,6853;0,0399338
1195,6495;0,0406288
1196,6138;0,0413628
1197,5780;0,0421295
1198,5422;0,0429158
1199,5065;0,0435049
1200,4707;0,0442963
1201,4349;0,0450556
1202,3992;0,0457767
1203,3634;0,0464623
1204,3276;0,0471183
1205,2919;0,0477481
1206,2561;0,0483506
1207,2203;0,0489225
1208,1846;0,0494631
1209,1488;0,0499766
1210,1130;0,0504701
1211,0773;0,0509497
1212,0415;0,0514175
1213,0057;0,0518717
1213,9700;0,0523106
1214,9342;0,0527349
1215,8984;0,0531482
1216,8627;0,0535522
1217,8269;0,0539436
1218,7911;0,0543162
1219,7554;0,0546624
1220,7196;0,0549765
1221,6838;0,0552562
1222,6481;0,0555007
1223,6123;0,0557076
1224,5765;0,0558714
1225,5408;0,0559845
1226,5050;0,0560407
1227,4692;0,0560382
1228,4335;0,0559818
1229,3977;0,0558813
1230,3619;0,0557485
1231,3262;0,055594
1232,2904;0,0554254
1233,2546;0,0552476
1234,2189;0,0550662
1235,1831;0,0548898
1236,1473;0,0547315
1237,1116;0,0546064
1238,0758;0,0545282
1239,0400;0,0545048
1240,0043;0,0545377
1240,9685;0,054624
1241,9327;0,0547597
1242,8970;0,0549418
1243,8612;0,0551675
1244,8254;0,0554324
1245,7897;0,0557294
1246,7539;0,0560515
1247,7181;0,0563947
1248,6824;0,0567605
1249,6466;0,057155
1250,6108;0,0575847
1251,5751;0,0580516
1252,5393;0,0585511
1253,5035;0,0590738
1254,4678;0,0596086
1255,4320;0,0601443
1256,3962;0,0606684
1257,3605;0,0611631
1258,3247;0,0616043
1259,2889;0,0619646
1260,2532;0,0622208
1261,2174;0,0623609
1262,1816;0,0623858
1263,1459;0,062305
1264,1101;0,0621295
1265,0743;0,0618656
1266,0386;0,0615133
1267,0028;0,0610662
1267,9670;0,0605145
1268,9313;0,0598479
1269,8955;0,059062
1270,8597;0,0581636
1271,8240;0,0571739
1272,7882;0,0561253
1273,7524;0,0550535
1274,7167;0,053988
1275,6809;0,052947
1276,6451;0,0519371
1277,6094;0,0509572
1278,5736;0,0500042
1279,5378;0,0490775
1280,5021;0,048182
1281,4663;0,047328
1282,4305;0,0465285
1283,3948;0,0457946
1284,3590;0,0451308
1285,3232;0,0445339
1286,2875;0,0439949
1287,2517;0,0435052
1288,2159;0,0430611
1289,1802;0,0426664
1290,1444;0,0423293
1291,1086;0,0420573
1292,0729;0,0418533
1293,0371;0,0417152
1294,0013;0,0416379
1294,9656;0,0416163
1295,9298;0,0416452
1296,8940;0,0417184
1297,8583;0,0418274
1298,8225;0,041962
1299,7867;0,0421134
1300,7510;0,042277
1301,7152;0,0424572
1302,6794;0,0426608
1303,6437;0,0428937
1304,6079;0,0431578
1305,5721;0,0434491
1306,5364;0,0437607
1307,5006;0,0440863
1308,4648;0,0444231
1309,4291;0,0447684
1310,3933;0,0451161
1311,3575;0,0454537
1312,3218;0,0457644
1313,2860;0,0460307
1314,2502;0,0462381
1315,2145;0,0463726
1316,1787;0,0464166
1317,1429;0,046349
1318,1072;0,0461554
1319,0714;0,045842
1320,0356;0,0454436
1320,9999;0,0450132
1321,9641;0,0446013
1322,9283;0,0442392
1323,8926;0,0439366
1324,8568;0,0436902
1325,8210;0,043493
1326,7853;0,04334
1327,7495;0,0432281
1328,7137;0,0431536
1329,6780;0,0431112
1330,6422;0,0430978
1331,6064;0,0431167
1332,5707;0,0431781
1333,5349;0,0432973
1334,4991;0,0434836
1335,4634;0,043727
1336,4276;0,0439851
1337,3918;0,0441756
1338,3561;0,0441957
1339,3203;0,0439827
1340,2845;0,0435726
1341,2488;0,0430853
1342,2130;0,0426445
1343,1772;0,0423178
1344,1415;0,0421145
1345,1057;0,0420128
1346,0699;0,0419838
1347,0342;0,042004
1347,9984;0,0420632
1348,9626;0,0421633
1349,9269;0,0423111
1350,8911;0,0425077
1351,8553;0,0427426
1352,8196;0,0429957
1353,7838;0,0432478
1354,7480;0,0434921
1355,7123;0,0437408
1356,6765;0,0440194
