TITLE;
DATA TYPE;INFRARED SPECTRUM
ORIGIN;JASCO
OWNER;
DATE;25/02/26
TIME;18:30:11
SPECTROMETER/DATA SYSTEM;
LOCALE;9226
RESOLUTION;
DELTAX;0,964233
XUNITS;1/CM
YUNITS;ABSORBANCE
FIRSTX;  399,1927
LASTX; 4000,6047
NPOINTS;    3736
FIRSTY;     0,18380
MAXY;     0,24362
MINY;     0,01002
XYDATA
399,1927;0,183797
400,1569;0,184403
401,1211;0,183771
402,0854;0,182643
403,0496;0,181608
404,0138;0,180955
404,9781;0,180731
405,9423;0,180848
406,9065;0,181194
407,8708;0,181698
408,8350;0,182336
409,7992;0,183087
410,7635;0,183883
411,7277;0,184608
412,6919;0,185141
413,6562;0,185402
414,6204;0,185372
415,5846;0,1851
416,5489;0,184738
417,5131;0,1846
418,4773;0,185079
419,4416;0,186276
420,4058;0,187776
421,3700;0,189054
422,3343;0,189917
423,2985;0,190487
424,2627;0,19099
425,2270;0,191603
426,1912;0,192347
427,1554;0,19309
428,1197;0,193642
429,0839;0,193874
430,0481;0,193796
431,0124;0,193542
431,9766;0,193311
432,9408;0,19328
433,9051;0,193529
434,8693;0,194013
435,8335;0,194583
436,7978;0,195047
437,7620;0,19526
438,7262;0,19519
439,6905;0,194923
440,6547;0,194617
441,6189;0,19442
442,5832;0,194391
443,5474;0,194452
444,5116;0,19443
445,4759;0,194167
446,4401;0,193607
447,4043;0,192814
448,3686;0,191927
449,3328;0,191113
450,2970;0,190519
451,2613;0,190223
452,2255;0,190198
453,1897;0,190321
454,1540;0,190424
455,1182;0,19038
456,0824;0,190177
457,0467;0,189941
458,0109;0,189864
458,9751;0,190056
459,9394;0,190441
460,9036;0,190822
461,8678;0,191015
462,8321;0,190936
463,7963;0,190605
464,7605;0,190118
465,7248;0,1896
466,6890;0,189157
467,6532;0,188848
468,6175;0,188681
469,5817;0,188628
470,5459;0,188642
471,5102;0,188675
472,4744;0,188691
473,4386;0,188698
474,4029;0,188733
475,3671;0,188835
476,3313;0,18901
477,2956;0,189211
478,2598;0,189348
479,2240;0,189319
480,1883;0,189062
481,1525;0,188602
482,1167;0,188066
483,0810;0,187659
484,0452;0,187583
485,0094;0,187941
485,9737;0,188685
486,9379;0,189645
487,9021;0,190621
488,8664;0,191451
489,8306;0,192038
490,7948;0,192348
491,7591;0,1924
492,7233;0,192265
493,6875;0,192049
494,6518;0,191871
495,6160;0,191816
496,5802;0,19191
497,5445;0,19211
498,5087;0,192327
499,4729;0,192471
500,4372;0,192497
501,4014;0,192436
502,3656;0,192376
503,3299;0,192405
504,2941;0,192549
505,2583;0,19276
506,2226;0,192964
507,1868;0,193126
508,1510;0,193286
509,1153;0,19355
510,0795;0,194016
511,0437;0,194698
512,0080;0,195499
512,9722;0,196252
513,9365;0,196809
514,9007;0,197124
515,8649;0,197292
516,8292;0,197504
517,7934;0,197922
518,7576;0,198554
519,7219;0,199233
520,6861;0,199736
521,6503;0,199929
522,6146;0,199825
523,5788;0,199558
524,5430;0,199304
525,5073;0,199189
526,4715;0,199219
527,4357;0,199296
528,4000;0,1993
529,3642;0,199172
530,3284;0,19894
531,2927;0,198682
532,2569;0,198469
533,2211;0,19832
534,1854;0,198204
535,1496;0,198055
536,1138;0,197823
537,0781;0,197493
538,0423;0,197092
539,0065;0,196669
539,9708;0,196278
540,9350;0,195969
541,8992;0,195784
542,8635;0,195759
543,8277;0,195913
544,7919;0,196234
545,7562;0,196671
546,7204;0,197141
547,6846;0,197554
548,6489;0,197852
549,6131;0,198039
550,5773;0,198175
551,5416;0,198353
552,5058;0,198655
553,4700;0,199106
554,4343;0,199647
555,3985;0,200147
556,3627;0,200446
557,3270;0,200413
558,2912;0,199998
559,2554;0,199245
560,2197;0,198271
561,1839;0,197212
562,1481;0,196181
563,1124;0,195232
564,0766;0,194366
565,0408;0,193554
566,0051;0,19277
566,9693;0,192026
567,9335;0,191362
568,8978;0,190828
569,8620;0,190442
570,8262;0,190173
571,7905;0,189961
572,7547;0,189742
573,7189;0,189486
574,6832;0,189196
575,6474;0,188904
576,6116;0,188638
577,5759;0,188407
578,5401;0,188202
579,5043;0,188014
580,4686;0,187846
581,4328;0,187713
582,3970;0,187621
583,3613;0,187559
584,3255;0,187494
585,2897;0,187393
586,2540;0,18724
587,2182;0,187048
588,1824;0,18685
589,1467;0,186682
590,1109;0,186566
591,0751;0,186497
592,0394;0,186447
593,0036;0,186369
593,9678;0,18622
594,9321;0,185969
595,8963;0,185617
596,8605;0,185196
597,8248;0,18476
598,7890;0,184368
599,7532;0,184051
600,7175;0,18379
601,6817;0,183523
602,6459;0,183173
603,6102;0,182691
604,5744;0,182079
605,5386;0,181383
606,5029;0,180668
607,4671;0,179981
608,4313;0,179335
609,3956;0,178709
610,3598;0,17807
611,3240;0,177391
612,2883;0,176668
613,2525;0,175905
614,2167;0,175113
615,1810;0,174296
616,1452;0,173449
617,1094;0,172562
618,0737;0,171624
619,0379;0,170627
620,0021;0,169571
620,9664;0,168468
621,9306;0,167343
622,8948;0,166238
623,8591;0,165204
624,8233;0,164293
625,7875;0,163503
626,7518;0,162807
627,7160;0,162155
628,6802;0,161499
629,6445;0,160813
630,6087;0,160105
631,5729;0,159395
632,5372;0,158709
633,5014;0,158056
634,4656;0,157439
635,4299;0,156858
636,3941;0,156323
637,3583;0,155847
638,3226;0,155434
639,2868;0,155063
640,2510;0,154692
641,2153;0,154277
642,1795;0,153796
643,1437;0,153261
644,1080;0,152717
645,0722;0,152215
646,0364;0,151786
647,0007;0,151425
647,9649;0,151102
648,9291;0,15078
649,8934;0,150449
650,8576;0,150129
651,8218;0,149858
652,7861;0,149666
653,7503;0,149557
654,7145;0,149515
655,6788;0,149524
656,6430;0,149583
657,6072;0,149696
658,5715;0,149853
659,5357;0,150004
660,4999;0,150073
661,4642;0,150015
662,4284;0,149858
663,3926;0,149697
664,3569;0,149617
665,3211;0,149617
666,2853;0,149543
667,2496;0,149104
668,2138;0,148086
669,1780;0,146633
670,1423;0,145075
671,1065;0,143575
672,0707;0,142125
673,0350;0,140658
673,9992;0,139115
674,9634;0,137502
675,9277;0,135897
676,8919;0,134408
677,8561;0,13309
678,8204;0,131923
679,7846;0,130858
680,7488;0,129866
681,7131;0,128955
682,6773;0,128147
683,6415;0,127453
684,6058;0,126863
685,5700;0,126356
686,5342;0,125908
687,4985;0,125499
688,4627;0,125111
689,4269;0,124732
690,3912;0,124357
691,3554;0,12398
692,3196;0,123598
693,2839;0,123202
694,2481;0,122787
695,2123;0,122348
696,1766;0,12189
697,1408;0,121419
698,1050;0,120948
699,0693;0,12049
700,0335;0,120062
700,9977;0,119671
701,9620;0,119312
702,9262;0,118957
703,8904;0,118567
704,8547;0,118106
705,8189;0,117565
706,7831;0,116973
707,7474;0,116383
708,7116;0,115845
709,6758;0,115374
710,6401;0,114947
711,6043;0,114513
712,5685;0,114023
713,5328;0,113459
714,4970;0,112839
715,4612;0,112387
716,4255;0,111719
717,3897;0,111049
718,3539;0,110363
719,3182;0,109639
720,2824;0,10887
721,2466;0,108071
722,2109;0,107267
723,1751;0,106479
724,1393;0,105715
725,1036;0,10497
726,0678;0,104245
727,0320;0,103549
727,9963;0,102894
728,9605;0,102285
729,9247;0,10171
730,8890;0,101145
731,8532;0,100571
732,8174;0,0999865
733,7817;0,0994101
734,7459;0,0988664
735,7101;0,0983688
736,6744;0,0979102
737,6386;0,0974697
738,6028;0,0970265
739,5671;0,0965723
740,5313;0,0961119
741,4955;0,0956545
742,4598;0,0952042
743,4240;0,094757
744,3882;0,0943069
745,3525;0,0938532
746,3167;0,0934032
747,2809;0,0929665
748,2452;0,0925444
749,2094;0,0921241
750,1736;0,0916806
751,1379;0,0911881
752,1021;0,0906342
753,0663;0,0900289
754,0306;0,0894038
754,9948;0,0888004
755,9590;0,0882539
756,9233;0,0877794
757,8875;0,087368
758,8517;0,086994
759,8160;0,0866294
760,7802;0,0862572
761,7444;0,0858778
762,7087;0,0855033
763,6729;0,0851473
764,6371;0,0848145
765,6014;0,0844982
766,5656;0,084185
767,5298;0,0838628
768,4941;0,0835271
769,4583;0,0831815
770,4225;0,0828344
771,3868;0,0824955
772,3510;0,0821717
773,3152;0,0818657
774,2795;0,0815752
775,2437;0,0812933
776,2079;0,0810116
777,1722;0,0807248
778,1364;0,0804337
779,1006;0,0801453
780,0649;0,0798658
781,0291;0,0795948
781,9933;0,0793221
782,9576;0,0790332
783,9218;0,07872
784,8860;0,0783891
785,8503;0,0780619
786,8145;0,0777647
787,7787;0,0775146
788,7430;0,0773102
789,7072;0,0771324
790,6714;0,0769556
791,6357;0,0767617
792,5999;0,0765489
793,5641;0,0763317
794,5284;0,0761316
795,4926;0,0759647
796,4568;0,0758335
797,4211;0,0757255
798,3853;0,0756196
799,3495;0,0754961
800,3138;0,0753453
801,2780;0,0751715
802,2422;0,0749897
803,2065;0,074818
804,1707;0,0746684
805,1349;0,0745417
806,0992;0,0744285
807,0634;0,0743171
808,0276;0,0742017
808,9919;0,0740864
809,9561;0,0739821
810,9203;0,0738969
811,8846;0,0738285
812,8488;0,0737638
813,8130;0,0736859
814,7773;0,0735849
815,7415;0,0734627
816,7057;0,0733311
817,6700;0,0732034
818,6342;0,0730879
819,5984;0,0729871
820,5627;0,0729025
821,5269;0,0728389
822,4911;0,0728034
823,4554;0,0728003
824,4196;0,0728265
825,3839;0,0728714
826,3481;0,0729223
827,3123;0,0729688
828,2766;0,0730032
829,2408;0,0730169
830,2050;0,0729968
831,1693;0,0729267
832,1335;0,0727935
833,0977;0,0725947
834,0620;0,07234
835,0262;0,0720476
835,9904;0,0717378
836,9547;0,0714286
837,9189;0,0711348
838,8831;0,0708689
839,8474;0,0706386
840,8116;0,0704436
841,7758;0,0702735
842,7401;0,0701108
843,7043;0,069939
844,6685;0,0697505
845,6328;0,0695502
846,5970;0,069352
847,5612;0,0691731
848,5255;0,0690281
849,4897;0,0689269
850,4539;0,0688731
851,4182;0,0688629
852,3824;0,0688836
853,3466;0,0689147
854,3109;0,0689337
855,2751;0,068924
856,2393;0,0688812
857,2036;0,0688133
858,1678;0,0687353
859,1320;0,0686629
860,0963;0,0686082
861,0605;0,0685795
862,0247;0,0685834
862,9890;0,0686243
863,9532;0,0687042
864,9174;0,0688218
865,8817;0,0689723
866,8459;0,0691497
867,8101;0,0693463
868,7744;0,0695515
869,7386;0,0697507
870,7028;0,0699268
871,6671;0,0700664
872,6313;0,0701656
873,5955;0,0702321
874,5598;0,0702812
875,5240;0,070328
876,4882;0,0703821
877,4525;0,0704465
878,4167;0,0705231
879,3809;0,0706181
880,3452;0,0707449
881,3094;0,0709224
882,2736;0,0711705
883,2379;0,0715057
884,2021;0,0719377
885,1663;0,0724689
886,1306;0,0730947
887,0948;0,0738062
888,0590;0,0745926
889,0233;0,0754424
889,9875;0,0763414
890,9517;0,077268
891,9160;0,0781896
892,8802;0,0790637
893,8444;0,0798453
894,8087;0,0804967
895,7729;0,0809949
896,7371;0,0813312
897,7014;0,0815056
898,6656;0,0815211
899,6298;0,0813823
900,5941;0,0810995
901,5583;0,080694
902,5225;0,0801992
903,4868;0,0796566
904,4510;0,0791086
905,4152;0,0785924
906,3795;0,0781381
907,3437;0,0777683
908,3079;0,0774994
909,2722;0,0773407
910,2364;0,0772941
911,2007;0,0773543
912,1649;0,0775097
913,1292;0,0777461
914,0934;0,0780479
915,0576;0,0784005
916,0219;0,0787908
916,9861;0,0792082
917,9503;0,0796448
918,9146;0,0800942
919,8788;0,0805486
920,8430;0,0809975
921,8073;0,0814273
922,7715;0,0818236
923,7357;0,0821748
924,7000;0,082474
925,6642;0,0827194
926,6284;0,0829142
927,5927;0,083066
928,5569;0,083188
929,5211;0,083298
930,4854;0,0834148
931,4496;0,083553
932,4138;0,0837179
933,3781;0,0839065
934,3423;0,0841135
935,3065;0,0843408
936,2708;0,0846011
937,2350;0,0849155
938,1992;0,0853036
939,1635;0,085773
940,1277;0,0863159
941,0919;0,086913
942,0562;0,0875437
943,0204;0,0881958
943,9846;0,0888698
944,9489;0,0895772
945,9131;0,0903341
946,8773;0,0911552
947,8416;0,0920491
948,8058;0,0930181
949,7700;0,0940605
950,7343;0,0951757
951,6985;0,0963678
952,6627;0,0976462
953,6270;0,0990226
954,5912;0,100504
955,5554;0,102091
956,5197;0,103772
957,4839;0,105532
958,4481;0,107357
959,4124;0,109235
960,3766;0,111159
961,3408;0,113119
962,3051;0,115104
963,2693;0,117104
964,2335;0,119118
965,1978;0,121154
966,1620;0,123231
967,1262;0,125373
968,0905;0,127599
969,0547;0,129928
970,0189;0,132377
970,9832;0,134966
971,9474;0,137719
972,9116;0,140663
973,8759;0,143824
974,8401;0,147217
975,8043;0,150851
976,7686;0,154719
977,7328;0,158795
978,6970;0,163021
979,6613;0,167306
980,6255;0,171529
981,5897;0,175558
982,5540;0,179269
983,5182;0,182577
984,4824;0,185441
985,4467;0,187865
986,4109;0,189883
987,3751;0,191544
988,3394;0,192901
989,3036;0,194006
990,2678;0,194902
991,2321;0,195629
992,1963;0,19622
993,1605;0,19671
994,1248;0,197133
995,0890;0,197523
996,0532;0,197909
997,0175;0,198306
997,9817;0,198717
998,9459;0,199134
999,9102;0,199552
1000,8744;0,199981
1001,8386;0,200452
1002,8029;0,201008
1003,7671;0,201696
1004,7313;0,202559
1005,6956;0,203627
1006,6598;0,204919
1007,6240;0,206441
1008,5883;0,208188
1009,5525;0,210134
1010,5167;0,212235
1011,4810;0,214436
1012,4452;0,21668
1013,4094;0,218925
1014,3737;0,221142
1015,3379;0,22331
1016,3021;0,225412
1017,2664;0,227423
1018,2306;0,229317
1019,1948;0,231072
1020,1591;0,232684
1021,1233;0,234166
1022,0875;0,235547
1023,0518;0,236854
1024,0160;0,238105
1024,9802;0,239298
1025,9445;0,240417
1026,9087;0,241432
1027,8729;0,24231
1028,8372;0,243007
1029,8014;0,243467
1030,7656;0,243621
1031,7299;0,243394
1032,6941;0,242723
1033,6583;0,241586
1034,6226;0,240013
1035,5868;0,238096
1036,5510;0,235973
1037,5153;0,233805
1038,4795;0,231747
1039,4437;0,229928
1040,4080;0,228426
1041,3722;0,22727
1042,3364;0,226429
1043,3007;0,225829
1044,2649;0,225367
1045,2291;0,224935
1046,1934;0,224439
1047,1576;0,223814
1048,1218;0,223024
1049,0861;0,222056
1050,0503;0,220904
1051,0145;0,219563
1051,9788;0,218024
1052,9430;0,216282
1053,9072;0,214342
1054,8715;0,212218
1055,8357;0,209925
1056,7999;0,20746
1057,7642;0,204795
1058,7284;0,201887
1059,6926;0,198707
1060,6569;0,195267
1061,6211;0,191642
1062,5853;0,187959
1063,5496;0,184364
1064,5138;0,180981
1065,4780;0,177884
1066,4423;0,175087
1067,4065;0,172561
1068,3707;0,170255
1069,3350;0,168118
1070,2992;0,166106
1071,2634;0,164181
1072,2277;0,162304
1073,1919;0,160433
1074,1561;0,158527
1075,1204;0,156555
1076,0846;0,154504
1077,0488;0,152389
1078,0131;0,150246
1078,9773;0,148126
1079,9415;0,146083
1080,9058;0,144165
1081,8700;0,142406
1082,8342;0,14083
1083,7985;0,139447
1084,7627;0,138261
1085,7269;0,137264
1086,6912;0,136439
1087,6554;0,135761
1088,6196;0,1352
1089,5839;0,134734
1090,5481;0,134356
1091,5123;0,134073
1092,4766;0,1339
1093,4408;0,133849
1094,4050;0,133914
1095,3693;0,134078
1096,3335;0,134316
1097,2977;0,134604
1098,2620;0,134925
1099,2262;0,135264
1100,1904;0,135601
1101,1547;0,13591
1102,1189;0,136155
1103,0831;0,136305
1104,0474;0,136341
1105,0116;0,136254
1105,9758;0,136051
1106,9401;0,135743
1107,9043;0,135336
1108,8685;0,134827
1109,8328;0,134197
1110,7970;0,133418
1111,7612;0,132464
1112,7255;0,131327
1113,6897;0,130034
1114,6539;0,128644
1115,6182;0,12724
1116,5824;0,125901
1117,5466;0,124681
1118,5109;0,123591
1119,4751;0,122603
1120,4393;0,12165
1121,4036;0,120654
1122,3678;0,119536
1123,3320;0,11823
1124,2963;0,116702
1125,2605;0,114949
1126,2247;0,113
1127,1890;0,110908
1128,1532;0,108733
1129,1174;0,106526
1130,0817;0,104327
1131,0459;0,102161
1132,0101;0,100046
1132,9744;0,0980053
1133,9386;0,0960671
1134,9028;0,0942677
1135,8671;0,0926448
1136,8313;0,0912304
1137,7955;0,0900445
1138,7598;0,089091
1139,7240;0,0883568
1140,6882;0,0878141
1141,6525;0,0874264
1142,6167;0,087156
1143,5809;0,0869723
1144,5452;0,0868588
1145,5094;0,0868143
1146,4736;0,08685
1147,4379;0,0869814
1148,4021;0,0872192
1149,3663;0,0875626
1150,3306;0,0879966
1151,2948;0,0884946
1152,2590;0,0890226
1153,2233;0,089544
1154,1875;0,0900197
1155,1517;0,0904075
1156,1160;0,0906593
1157,0802;0,0907212
1158,0444;0,0905363
1159,0087;0,0900497
1159,9729;0,0892143
1160,9371;0,0879967
1161,9014;0,0863833
1162,8656;0,0843855
1163,8298;0,082044
1164,7941;0,0794289
1165,7583;0,0766348
1166,7225;0,0737699
1167,6868;0,0709415
1168,6510;0,0682419
1169,6152;0,0657385
1170,5795;0,0634707
1171,5437;0,0614525
1172,5079;0,0596796
1173,4722;0,0581358
1174,4364;0,0567995
1175,4006;0,0556476
1176,3649;0,0546589
1177,3291;0,0538162
1178,2933;0,053107
1179,2576;0,052522
1180,2218;0,0520525
1181,1860;0,0516869
1182,1503;0,0514102
1183,1145;0,0512067
1184,0787;0,0510643
1185,0430;0,0509788
1186,0072;0,0509545
1186,9714;0,0509999
1187,9357;0,0511231
1188,8999;0,0513267
1189,8641;0,0516078
1190,8284;0,0519617
1191,7926;0,0523859
1192,7568;0,0528824
1193,7211;0,0534558
1194,6853;0,0541076
1195,6495;0,0548326
1196,6138;0,0556172
1197,5780;0,0564426
1198,5422;0,0572899
1199,5065;0,0581435
1200,4707;0,0589963
1201,4349;0,0598421
1202,3992;0,0606771
1203,3634;0,0614968
1204,3276;0,0622962
1205,2919;0,0630721
1206,2561;0,0638262
1207,2203;0,0645681
1208,1846;0,0653154
1209,1488;0,0660921
1210,1130;0,0669226
1211,0773;0,0678254
1212,0415;0,0688068
1213,0057;0,0698595
1213,9700;0,0709652
1214,9342;0,0721013
1215,8984;0,0732465
1216,8627;0,0743841
1217,8269;0,0755016
1218,7911;0,0765887
1219,7554;0,0776367
1220,7196;0,0786382
1221,6838;0,0795878
1222,6481;0,0804818
1223,6123;0,0813169
1224,5765;0,0820896
1225,5408;0,0827973
1226,5050;0,0834401
1227,4692;0,0840224
1228,4335;0,0845513
1229,3977;0,0850331
1230,3619;0,08547
1231,3262;0,085858
1232,2904;0,0861895
1233,2546;0,0864579
1234,2189;0,0866618
1235,1831;0,0868067
1236,1473;0,0869031
1237,1116;0,0869629
1238,0758;0,0869957
1239,0400;0,0870062
1240,0043;0,0869943
1240,9685;0,0869552
1241,9327;0,0868811
1242,8970;0,0867629
1243,8612;0,0865913
1244,8254;0,0863596
1245,7897;0,0860657
1246,7539;0,0857137
1247,7181;0,0853137
1248,6824;0,0848801
1249,6466;0,0844281
1250,6108;0,083971
1251,5751;0,0835183
1252,5393;0,0830752
1253,5035;0,0826429
1254,4678;0,0822192
1255,4320;0,0817986
1256,3962;0,0813727
1257,3605;0,0809313
1258,3247;0,0804646
1259,2889;0,0799646
1260,2532;0,079425
1261,2174;0,0788414
1262,1816;0,0782097
1263,1459;0,077528
1264,1101;0,0767976
1265,0743;0,0760244
1266,0386;0,0752174
1267,0028;0,0743852
1267,9670;0,0735324
1268,9313;0,0726591
1269,8955;0,0717629
1270,8597;0,0708428
1271,8240;0,0699018
1272,7882;0,0689473
1273,7524;0,067989
1274,7167;0,0670383
1275,6809;0,0661075
1276,6451;0,0652082
1277,6094;0,0643489
1278,5736;0,0635311
1279,5378;0,0627479
1280,5021;0,0619867
1281,4663;0,0612365
1282,4305;0,0604948
1283,3948;0,0597706
1284,3590;0,0590809
1285,3232;0,0584438
1286,2875;0,0578719
1287,2517;0,05737
1288,2159;0,056936
1289,1802;0,0565658
1290,1444;0,0562568
1291,1086;0,0560091
1292,0729;0,0558247
1293,0371;0,055706
1294,0013;0,0556538
1294,9656;0,0556674
1295,9298;0,0557461
1296,8940;0,0558902
1297,8583;0,0561024
1298,8225;0,0563871
1299,7867;0,0567469
1300,7510;0,057179
1301,7152;0,0576743
1302,6794;0,0582191
1303,6437;0,0588009
1304,6079;0,0594121
1305,5721;0,060051
1306,5364;0,0607181
1307,5006;0,0614108
1308,4648;0,0621205
1309,4291;0,0628331
1310,3933;0,0635323
1311,3575;0,0642026
1312,3218;0,0648294
1313,2860;0,0653976
1314,2502;0,0658896
1315,2145;0,0662854
1316,1787;0,0665654
1317,1429;0,0667172
1318,1072;0,0667428
1319,0714;0,0666625
1320,0356;0,0665094
1320,9999;0,0663173
1321,9641;0,0661095
1322,9283;0,0658974
1323,8926;0,0656861
1324,8568;0,0654819
1325,8210;0,0652947
1326,7853;0,0651346
1327,7495;0,0650041
1328,7137;0,0648939
1329,6780;0,0647835
1330,6422;0,0646486
1331,6064;0,0644699
1332,5707;0,0642397
1333,5349;0,06396
1334,4991;0,0636345
1335,4634;0,0632601
1336,4276;0,062824
1337,3918;0,062313
1338,3561;0,0617326
1339,3203;0,0611206
1340,2845;0,0605369
1341,2488;0,0600321
1342,2130;0,0596244
1343,1772;0,0593044
1344,1415;0,0590523
1345,1057;0,0588536
1346,0699;0,0587065
1347,0342;0,0586221
1347,9984;0,0586183
1348,9626;0,0587111
1349,9269;0,0589049
1350,8911;0,0591903
1351,8553;0,0595474
1352,8196;0,0599563
1353,7838;0,0604054
1354,7480;0,0608938
1355,7123;0,0614252
1356,6765;0,0619993
1357,6407;0,0626076
1358,6050;0,0632361
1359,5692;0,0638701
