TITLE;
DATA TYPE;INFRARED SPECTRUM
ORIGIN;JASCO
OWNER;
DATE;25/02/26
TIME;18:36:29
SPECTROMETER/DATA SYSTEM;
LOCALE;9226
RESOLUTION;
DELTAX;0,964233
XUNITS;1/CM
YUNITS;ABSORBANCE
FIRSTX;  399,1927
LASTX; 4000,6047
NPOINTS;    3736
FIRSTY;     0,16991
MAXY;     0,26636
MINY;     0,01187
XYDATA
399,1927;0,169909
400,1569;0,171927
401,1211;0,173287
402,0854;0,173931
403,0496;0,174075
404,0138;0,173973
404,9781;0,17384
405,9423;0,173834
406,9065;0,17407
407,8708;0,174597
408,8350;0,175389
409,7992;0,176332
410,7635;0,177241
411,7277;0,177937
412,6919;0,178343
413,6562;0,178523
414,6204;0,178642
415,5846;0,178892
416,5489;0,179443
417,5131;0,180383
418,4773;0,181594
419,4416;0,182735
420,4058;0,183534
421,3700;0,184053
422,3343;0,184555
423,2985;0,185272
424,2627;0,186299
425,2270;0,187562
426,1912;0,188846
427,1554;0,189887
428,1197;0,1905
429,0839;0,190662
430,0481;0,190509
431,0124;0,190289
431,9766;0,190264
432,9408;0,190603
433,9051;0,191314
434,8693;0,192241
435,8335;0,193141
436,7978;0,193808
437,7620;0,194155
438,7262;0,194216
439,6905;0,194076
440,6547;0,193796
441,6189;0,1934
442,5832;0,192898
443,5474;0,19233
444,5116;0,191777
445,4759;0,191314
446,4401;0,190961
447,4043;0,190674
448,3686;0,190384
449,3328;0,190057
450,2970;0,189719
451,2613;0,189442
452,2255;0,189285
453,1897;0,189241
454,1540;0,189228
455,1182;0,189134
456,0824;0,188886
457,0467;0,188521
458,0109;0,188198
458,9751;0,188107
459,9394;0,188334
460,9036;0,188806
461,8678;0,189344
462,8321;0,189757
463,7963;0,189901
464,7605;0,189732
465,7248;0,189319
466,6890;0,188818
467,6532;0,188386
468,6175;0,188107
469,5817;0,187971
470,5459;0,187908
471,5102;0,187843
472,4744;0,187751
473,4386;0,187656
474,4029;0,187601
475,3671;0,187609
476,3313;0,187678
477,2956;0,187797
478,2598;0,187959
479,2240;0,188162
480,1883;0,188397
481,1525;0,188652
482,1167;0,188912
483,0810;0,189171
484,0452;0,189433
485,0094;0,189701
485,9737;0,189981
486,9379;0,190285
487,9021;0,190638
488,8664;0,191081
489,8306;0,191639
490,7948;0,192302
491,7591;0,193009
492,7233;0,193664
493,6875;0,194186
494,6518;0,194548
495,6160;0,194773
496,5802;0,194912
497,5445;0,194999
498,5087;0,195048
499,4729;0,195053
500,4372;0,195017
501,4014;0,194968
502,3656;0,194954
503,3299;0,195019
504,2941;0,195179
505,2583;0,195416
506,2226;0,195701
507,1868;0,196017
508,1510;0,196383
509,1153;0,196845
510,0795;0,197452
511,0437;0,198219
512,0080;0,199108
512,9722;0,200039
513,9365;0,200921
514,9007;0,201699
515,8649;0,202381
516,8292;0,203023
517,7934;0,203681
518,7576;0,204347
519,7219;0,204939
520,6861;0,205361
521,6503;0,205568
522,6146;0,205601
523,5788;0,20556
524,5430;0,205557
525,5073;0,205653
526,4715;0,205818
527,4357;0,205956
528,4000;0,205975
529,3642;0,205849
530,3284;0,205627
531,2927;0,205394
532,2569;0,205222
533,2211;0,205128
534,1854;0,20507
535,1496;0,20497
536,1138;0,20476
537,0781;0,204424
538,0423;0,204007
539,0065;0,203601
539,9708;0,203307
540,9350;0,203197
541,8992;0,203295
542,8635;0,20358
543,8277;0,203995
544,7919;0,20447
545,7562;0,204933
546,7204;0,205327
547,6846;0,205623
548,6489;0,205835
549,6131;0,206022
550,5773;0,206265
551,5416;0,206631
552,5058;0,207142
553,4700;0,207757
554,4343;0,208387
555,3985;0,208936
556,3627;0,209335
557,3270;0,209545
558,2912;0,209546
559,2554;0,20931
560,2197;0,208798
561,1839;0,207985
562,1481;0,2069
563,1124;0,205632
564,0766;0,204318
565,0408;0,203091
566,0051;0,20205
566,9693;0,201232
567,9335;0,200627
568,8978;0,200187
569,8620;0,199855
570,8262;0,199575
571,7905;0,199312
572,7547;0,199052
573,7189;0,198796
574,6832;0,198558
575,6474;0,198356
576,6116;0,198199
577,5759;0,198083
578,5401;0,197993
579,5043;0,197904
580,4686;0,197789
581,4328;0,197629
582,3970;0,197423
583,3613;0,197199
584,3255;0,197005
585,2897;0,19689
586,2540;0,196878
587,2182;0,196952
588,1824;0,197055
589,1467;0,197114
590,1109;0,19707
591,0751;0,196911
592,0394;0,196674
593,0036;0,196422
593,9678;0,196196
594,9321;0,19599
595,8963;0,195745
596,8605;0,195395
597,8248;0,194902
598,7890;0,194292
599,7532;0,193644
600,7175;0,193049
601,6817;0,192558
602,6459;0,19216
603,6102;0,191799
604,5744;0,191413
605,5386;0,190962
606,5029;0,190445
607,4671;0,189877
608,4313;0,18927
609,3956;0,188625
610,3598;0,18794
611,3240;0,18723
612,2883;0,186523
613,2525;0,185858
614,2167;0,185251
615,1810;0,184679
616,1452;0,184072
617,1094;0,183338
618,0737;0,182404
619,0379;0,181256
620,0021;0,179945
620,9664;0,178559
621,9306;0,177187
622,8948;0,175901
623,8591;0,174744
624,8233;0,17374
625,7875;0,172861
626,7518;0,17208
627,7160;0,171358
628,6802;0,170657
629,6445;0,169949
630,6087;0,169221
631,5729;0,168478
632,5372;0,167733
633,5014;0,167005
634,4656;0,166301
635,4299;0,165621
636,3941;0,164966
637,3583;0,164347
638,3226;0,163785
639,2868;0,163299
640,2510;0,16289
641,2153;0,162527
642,1795;0,162165
643,1437;0,161764
644,1080;0,161313
645,0722;0,160836
646,0364;0,160368
647,0007;0,159938
647,9649;0,159549
648,9291;0,159191
649,8934;0,158857
650,8576;0,158558
651,8218;0,158316
652,7861;0,158146
653,7503;0,158044
654,7145;0,157995
655,6788;0,157991
656,6430;0,15804
657,6072;0,158151
658,5715;0,158301
659,5357;0,158425
660,4999;0,158434
661,4642;0,158291
662,4284;0,158046
663,3926;0,157816
664,3569;0,157701
665,3211;0,157701
666,2853;0,157649
667,2496;0,157218
668,2138;0,156134
669,1780;0,154526
670,1423;0,152792
671,1065;0,15116
672,0707;0,149631
673,0350;0,148125
673,9992;0,146564
674,9634;0,144927
675,9277;0,143266
676,8919;0,141665
677,8561;0,140177
678,8204;0,138803
679,7846;0,137524
680,7488;0,136345
681,7131;0,135288
682,6773;0,134372
683,6415;0,133592
684,6058;0,132927
685,5700;0,132352
686,5342;0,13185
687,4985;0,131403
688,4627;0,130985
689,4269;0,130567
690,3912;0,13013
691,3554;0,129672
692,3196;0,129204
693,2839;0,128742
694,2481;0,128295
695,2123;0,127857
696,1766;0,127418
697,1408;0,12697
698,1050;0,126516
699,0693;0,12607
700,0335;0,12565
700,9977;0,125258
701,9620;0,124879
702,9262;0,12448
703,8904;0,124028
704,8547;0,123503
705,8189;0,122909
706,7831;0,122275
707,7474;0,121639
708,7116;0,121027
709,6758;0,12045
710,6401;0,119895
711,6043;0,11934
712,5685;0,118763
713,5328;0,118158
714,4970;0,117537
715,4612;0,117099
716,4255;0,11648
717,3897;0,115875
718,3539;0,115263
719,3182;0,114608
720,2824;0,113874
721,2466;0,113049
722,2109;0,112148
723,1751;0,111209
724,1393;0,110268
725,1036;0,109357
726,0678;0,108493
727,0320;0,107688
727,9963;0,106941
728,9605;0,106241
729,9247;0,105575
730,8890;0,10493
731,8532;0,1043
732,8174;0,103694
733,7817;0,103118
734,7459;0,102573
735,7101;0,102049
736,6744;0,101532
737,6386;0,101013
738,6028;0,100493
739,5671;0,0999808
740,5313;0,0994831
741,4955;0,0989994
742,4598;0,0985237
743,4240;0,0980502
744,3882;0,0975767
745,3525;0,0971027
746,3167;0,0966242
747,2809;0,0961325
748,2452;0,0956199
749,2094;0,0950862
750,1736;0,0945405
751,1379;0,0939948
752,1021;0,0934536
753,0663;0,0929112
754,0306;0,0923579
754,9948;0,0917926
755,9590;0,0912297
756,9233;0,0906928
757,8875;0,0901995
758,8517;0,0897494
759,8160;0,0893263
760,7802;0,0889137
761,7444;0,0885104
762,7087;0,0881331
763,6729;0,087802
764,6371;0,0875194
765,6014;0,0872585
766,5656;0,0869741
767,5298;0,0866269
768,4941;0,0862073
769,4583;0,0857419
770,4225;0,0852777
771,3868;0,084857
772,3510;0,084497
773,3152;0,0841864
774,2795;0,0838975
775,2437;0,083605
776,2079;0,0832986
777,1722;0,0829857
778,1364;0,0826821
779,1006;0,0823991
780,0649;0,0821329
781,0291;0,0818629
781,9933;0,0815609
782,9576;0,0812072
783,9218;0,0808042
784,8860;0,0803797
785,8503;0,0799764
786,8145;0,0796319
787,7787;0,0793604
788,7430;0,0791477
789,7072;0,0789613
790,6714;0,0787685
791,6357;0,0785535
792,5999;0,0783211
793,5641;0,0780906
794,5284;0,0778824
795,4926;0,0777081
796,4568;0,0775664
797,4211;0,0774457
798,3853;0,0773289
799,3495;0,0771995
800,3138;0,0770469
801,2780;0,0768709
802,2422;0,0766831
803,2065;0,0765031
804,1707;0,0763488
805,1349;0,0762266
806,0992;0,0761267
807,0634;0,0760269
808,0276;0,0759043
808,9919;0,0757474
809,9561;0,075561
810,9203;0,0753625
811,8846;0,0751711
812,8488;0,074999
813,8130;0,0748471
814,7773;0,0747073
815,7415;0,0745686
816,7057;0,074422
817,6700;0,0742637
818,6342;0,0740962
819,5984;0,0739281
820,5627;0,0737728
821,5269;0,0736449
822,4911;0,0735548
823,4554;0,0735031
824,4196;0,0734798
825,3839;0,0734676
826,3481;0,0734491
827,3123;0,0734121
828,2766;0,0733512
829,2408;0,0732651
830,2050;0,0731517
831,1693;0,0730075
832,1335;0,0728286
833,0977;0,072614
834,0620;0,0723663
835,0262;0,0720906
835,9904;0,0717932
836,9547;0,0714817
837,9189;0,0711666
838,8831;0,0708619
839,8474;0,0705812
840,8116;0,0703325
841,7758;0,0701141
842,7401;0,0699169
843,7043;0,0697312
844,6685;0,0695542
845,6328;0,0693917
846,5970;0,0692526
847,5612;0,0691423
848,5255;0,0690583
849,4897;0,0689928
850,4539;0,0689388
851,4182;0,0688931
852,3824;0,0688561
853,3466;0,0688266
854,3109;0,0687991
855,2751;0,0687644
856,2393;0,0687152
857,2036;0,0686506
858,1678;0,0685774
859,1320;0,0685075
860,0963;0,0684534
861,0605;0,0684248
862,0247;0,068427
862,9890;0,0684631
863,9532;0,0685347
864,9174;0,0686434
865,8817;0,0687889
866,8459;0,0689658
867,8101;0,0691606
868,7744;0,0693526
869,7386;0,06952
870,7028;0,0696495
871,6671;0,0697433
872,6313;0,0698185
873,5955;0,0698962
874,5598;0,0699888
875,5240;0,0700913
876,4882;0,0701866
877,4525;0,0702599
878,4167;0,0703138
879,3809;0,0703729
880,3452;0,0704748
881,3094;0,0706536
882,2736;0,0709268
883,2379;0,0712934
884,2021;0,0717439
885,1663;0,0722718
886,1306;0,0728799
887,0948;0,0735761
888,0590;0,0743637
889,0233;0,0752331
889,9875;0,0761601
890,9517;0,0771102
891,9160;0,0780467
892,8802;0,0789347
893,8444;0,0797421
894,8087;0,0804379
895,7729;0,080991
896,7371;0,0813715
897,7014;0,0815559
898,6656;0,081532
899,6298;0,0813041
900,5941;0,0808949
901,5583;0,0803431
902,5225;0,0796978
903,4868;0,0790102
904,4510;0,0783253
905,4152;0,0776764
906,3795;0,077085
907,3437;0,0765653
908,3079;0,0761299
909,2722;0,0757925
910,2364;0,0755653
911,2007;0,0754535
912,1649;0,0754494
913,1292;0,0755327
914,0934;0,0756766
915,0576;0,0758579
916,0219;0,0760637
916,9861;0,0762929
917,9503;0,0765502
918,9146;0,0768387
919,8788;0,0771549
920,8430;0,0774884
921,8073;0,0778259
922,7715;0,0781541
923,7357;0,0784609
924,7000;0,0787346
925,6642;0,0789645
926,6284;0,0791444
927,5927;0,0792777
928,5569;0,0793797
929,5211;0,0794725
930,4854;0,0795764
931,4496;0,0797005
932,4138;0,0798416
933,3781;0,0799915
934,3423;0,0801491
935,3065;0,0803276
936,2708;0,0805514
937,2350;0,0808445
938,1992;0,0812188
939,1635;0,0816694
940,1277;0,0821801
941,0919;0,0827344
942,0562;0,0833231
943,0204;0,0839456
943,9846;0,0846068
944,9489;0,0853132
945,9131;0,0860739
946,8773;0,0869012
947,8416;0,0878096
948,8058;0,0888098
949,7700;0,0899025
950,7343;0,091077
951,6985;0,0923183
952,6627;0,0936181
953,6270;0,0949827
954,5912;0,0964316
955,5554;0,0979876
956,5197;0,0996641
957,4839;0,101458
958,4481;0,103351
959,4124;0,105315
960,3766;0,107325
961,3408;0,109359
962,3051;0,111404
963,2693;0,113456
964,2335;0,115517
965,1978;0,117598
966,1620;0,119715
967,1262;0,121893
968,0905;0,124157
969,0547;0,126533
970,0189;0,129044
970,9832;0,131711
971,9474;0,134555
972,9116;0,137597
973,8759;0,140861
974,8401;0,144374
975,8043;0,14816
976,7686;0,152233
977,7328;0,156586
978,6970;0,161179
979,6613;0,165932
980,6255;0,170723
981,5897;0,175402
982,5540;0,17981
983,5182;0,183808
984,4824;0,187303
985,4467;0,190266
986,4109;0,19273
987,3751;0,194771
988,3394;0,19648
989,3036;0,197938
990,2678;0,199203
991,2321;0,200309
992,1963;0,201279
993,1605;0,202138
994,1248;0,202919
995,0890;0,203657
996,0532;0,204382
997,0175;0,205106
997,9817;0,205822
998,9459;0,20652
999,9102;0,207196
1000,8744;0,207871
1001,8386;0,208588
1002,8029;0,209401
1003,7671;0,210364
1004,7313;0,211518
1005,6956;0,212896
1006,6598;0,21452
1007,6240;0,216412
1008,5883;0,21858
1009,5525;0,221013
1010,5167;0,223674
1011,4810;0,226497
1012,4452;0,22941
1013,4094;0,232346
1014,3737;0,235253
1015,3379;0,238096
1016,3021;0,240846
1017,2664;0,243475
1018,2306;0,245957
1019,1948;0,248275
1020,1591;0,25043
1021,1233;0,252443
1022,0875;0,254344
1023,0518;0,256165
1024,0160;0,257921
1024,9802;0,259611
1025,9445;0,261216
1026,9087;0,262705
1027,8729;0,264033
1028,8372;0,265141
1029,8014;0,26595
1030,7656;0,266363
1031,7299;0,266274
1032,6941;0,265594
1033,6583;0,264287
1034,6226;0,262398
1035,5868;0,260059
1036,5510;0,25747
1037,5153;0,254853
1038,4795;0,252408
1039,4437;0,25028
1040,4080;0,248543
1041,3722;0,247211
1042,3364;0,246248
1043,3007;0,245579
1044,2649;0,245104
1045,2291;0,244712
1046,1934;0,244292
1047,1576;0,243759
1048,1218;0,243056
1049,0861;0,242152
1050,0503;0,241031
1051,0145;0,239676
1051,9788;0,238074
1052,9430;0,236218
1053,9072;0,234119
1054,8715;0,231794
1055,8357;0,229256
1056,7999;0,226492
1057,7642;0,223464
1058,7284;0,22012
1059,6926;0,216437
1060,6569;0,212443
1061,6211;0,208235
1062,5853;0,203955
1063,5496;0,199761
1064,5138;0,195787
1065,4780;0,192122
1066,4423;0,1888
1067,4065;0,185812
1068,3707;0,183118
1069,3350;0,180662
1070,2992;0,178377
1071,2634;0,1762
1072,2277;0,174068
1073,1919;0,171932
1074,1561;0,16975
1075,1204;0,167498
1076,0846;0,16517
1077,0488;0,162782
1078,0131;0,16037
1078,9773;0,15799
1079,9415;0,155705
1080,9058;0,153575
1081,8700;0,151641
1082,8342;0,149925
1083,7985;0,148427
1084,7627;0,147133
1085,7269;0,146023
1086,6912;0,145074
1087,6554;0,144262
1088,6196;0,143569
1089,5839;0,142983
1090,5481;0,1425
1091,5123;0,142131
1092,4766;0,141885
1093,4408;0,141769
1094,4050;0,141776
1095,3693;0,141887
1096,3335;0,14208
1097,2977;0,142333
1098,2620;0,142634
1099,2262;0,142971
1100,1904;0,143325
1101,1547;0,143668
1102,1189;0,143956
1103,0831;0,144147
1104,0474;0,144207
1105,0116;0,144125
1105,9758;0,143911
1106,9401;0,143581
1107,9043;0,143147
1108,8685;0,142597
1109,8328;0,141896
1110,7970;0,140995
1111,7612;0,139858
1112,7255;0,138481
1113,6897;0,136906
1114,6539;0,135219
1115,6182;0,133525
1116,5824;0,13192
1117,5466;0,130465
1118,5109;0,12917
1119,4751;0,127998
1120,4393;0,126877
1121,4036;0,125721
1122,3678;0,124446
1123,3320;0,122983
1124,2963;0,121294
1125,2605;0,119373
1126,2247;0,117251
1127,1890;0,114984
1128,1532;0,112644
1129,1174;0,110296
1130,0817;0,107985
1131,0459;0,105735
1132,0101;0,103553
1132,9744;0,101448
1133,9386;0,0994416
1134,9028;0,0975727
1135,8671;0,0958905
1136,8313;0,0944391
1137,7955;0,0932448
1138,7598;0,09231
1139,7240;0,0916165
1140,6882;0,0911335
1141,6525;0,090826
1142,6167;0,0906617
1143,5809;0,0906143
1144,5452;0,0906664
1145,5094;0,0908103
1146,4736;0,0910469
1147,4379;0,0913809
1148,4021;0,091815
1149,3663;0,0923441
1150,3306;0,0929521
1151,2948;0,0936136
1152,2590;0,0942962
1153,2233;0,0949634
1154,1875;0,0955747
1155,1517;0,096086
1156,1160;0,0964484
1157,0802;0,0966097
1158,0444;0,0965158
1159,0087;0,0961123
1159,9729;0,0953464
1160,9371;0,0941719
1161,9014;0,0925583
1162,8656;0,0905029
1163,8298;0,0880421
1164,7941;0,0852544
1165,7583;0,0822527
1166,7225;0,0791656
1167,6868;0,0761164
1168,6510;0,0732037
1169,6152;0,0704929
1170,5795;0,0680171
1171,5437;0,0657856
1172,5079;0,0637927
1173,4722;0,0620259
1174,4364;0,0604693
1175,4006;0,0591058
1176,3649;0,0579188
1177,3291;0,0568933
1178,2933;0,0560177
1179,2576;0,055282
1180,2218;0,0546761
1181,1860;0,0541872
1182,1503;0,0538006
1183,1145;0,0535016
1184,0787;0,0532793
1185,0430;0,0531285
1186,0072;0,0530499
1186,9714;0,053048
1187,9357;0,0531285
1188,8999;0,0532964
1189,8641;0,0535543
1190,8284;0,0539016
1191,7926;0,0543341
1192,7568;0,0548449
1193,7211;0,0554263
1194,6853;0,0560709
1195,6495;0,0567731
1196,6138;0,0575268
1197,5780;0,0583232
1198,5422;0,0591488
1199,5065;0,0599761
1200,4707;0,0608094
1201,4349;0,0616229
1202,3992;0,0624078
1203,3634;0,0631601
1204,3276;0,0638779
1205,2919;0,0645607
1206,2561;0,06521
1207,2203;0,0658339
1208,1846;0,0664497
1209,1488;0,0670835
1210,1130;0,0677646
1211,0773;0,0685172
1212,0415;0,069352
1213,0057;0,070264
1213,9700;0,0712355
1214,9342;0,0722434
1215,8984;0,0732666
1216,8627;0,0742891
1217,8269;0,0753008
1218,7911;0,0762961
1219,7554;0,0772718
1220,7196;0,0782264
1221,6838;0,0791578
1222,6481;0,0800615
1223,6123;0,0809282
1224,5765;0,0817458
1225,5408;0,0825035
1226,5050;0,0831974
1227,4692;0,0838341
1228,4335;0,0844278
1229,3977;0,0849929
1230,3619;0,0855349
1231,3262;0,0860472
1232,2904;0,0865134
1233,2546;0,0869159
1234,2189;0,0872445
1235,1831;0,0875012
1236,1473;0,0876992
1237,1116;0,087856
1238,0758;0,0879874
1239,0400;0,0881021
1240,0043;0,0882
1240,9685;0,0882742
1241,9327;0,088313
1242,8970;0,0883038
1243,8612;0,0882358
1244,8254;0,0881028
1245,7897;0,0879049
1246,7539;0,0876481
1247,7181;0,0873422
1248,6824;0,0869983
1249,6466;0,0866268
1250,6108;0,0862363
1251,5751;0,0858342
1252,5393;0,0854279
1253,5035;0,0850234
1254,4678;0,0846239
1255,4320;0,0842269
1256,3962;0,0838249
1257,3605;0,0834069
1258,3247;0,0829623
1259,2889;0,0824835
1260,2532;0,0819664
1261,2174;0,081408
1262,1816;0,0808051
1263,1459;0,0801548
1264,1101;0,0794567
1265,0743;0,0787148
1266,0386;0,0779364
1267,0028;0,077129
1267,9670;0,0762972
1268,9313;0,0754422
1269,8955;0,0745643
1270,8597;0,0736659
1271,8240;0,0727524
1272,7882;0,0718309
1273,7524;0,0709088
1274,7167;0,0699948
1275,6809;0,0691004
1276,6451;0,0682396
1277,6094;0,0674242
1278,5736;0,0666573
1279,5378;0,0659299
1280,5021;0,0652238
1281,4663;0,0645222
1282,4305;0,0638197
1283,3948;0,0631262
1284,3590;0,0624625
1285,3232;0,0618503
1286,2875;0,0613045
1287,2517;0,0608303
1288,2159;0,0604271
1289,1802;0,0600928
1290,1444;0,0598273
1291,1086;0,0596313
1292,0729;0,0595042
1293,0371;0,0594435
1294,0013;0,0594452
1294,9656;0,059507
1295,9298;0,0596301
1296,8940;0,0598194
1297,8583;0,0600809
1298,8225;0,0604184
1299,7867;0,0608301
1300,7510;0,0613072
1301,7152;0,0618357
1302,6794;0,0624016
1303,6437;0,0629956
1304,6079;0,0636161
1305,5721;0,0642665
1306,5364;0,06495
1307,5006;0,065664
1308,4648;0,0663982
1309,4291;0,0671369
1310,3933;0,0678627
1311,3575;0,0685581
1312,3218;0,069206
1313,2860;0,0697878
1314,2502;0,0702833
1315,2145;0,0706708
1316,1787;0,0709307
1317,1429;0,0710506
1318,1072;0,0710331
1319,0714;0,0708997
1320,0356;0,0706873
1320,9999;0,0704366
1321,9641;0,0701785
1322,9283;0,0699304
1323,8926;0,0696987
1324,8568;0,0694863
1325,8210;0,0692962
1326,7853;0,0691314
1327,7495;0,0689912
1328,7137;0,0688679
1329,6780;0,0687479
1330,6422;0,0686151
1331,6064;0,0684561
1332,5707;0,0682624
1333,5349;0,0680285
1334,4991;0,0677464
1335,4634;0,0673999
1336,4276;0,0669672
1337,3918;0,0664324
1338,3561;0,0658068
1339,3203;0,0651408
1340,2845;0,0645077
1341,2488;0,063965
1342,2130;0,0635307
1343,1772;0,06319
1344,1415;0,0629175
1345,1057;0,0626938
1346,0699;0,0625134
1347,0342;0,0623851
1347,9984;0,0623277
1348,9626;0,0623615
1349,9269;0,0624973
1350,8911;0,06273
1351,8553;0,0630397
1352,8196;0,0634022
1353,7838;0,0638018
1354,7480;0,0642373
1355,7123;0,0647168
1356,6765;0,0652442
1357,6407;0,0658102
1358,6050;0,0663937
1359,5692;0,0669714
