TITLE;
DATA TYPE;INFRARED SPECTRUM
ORIGIN;JASCO
OWNER;
DATE;25/02/26
TIME;18:00:56
SPECTROMETER/DATA SYSTEM;
LOCALE;9226
RESOLUTION;
DELTAX;0,964233
XUNITS;1/CM
YUNITS;ABSORBANCE
FIRSTX;  399,1927
LASTX; 4000,6047
NPOINTS;    3736
FIRSTY;     0,18163
MAXY;     0,24476
MINY;     0,01149
XYDATA
399,1927;0,181626
400,1569;0,182003
401,1211;0,181878
402,0854;0,1815
403,0496;0,181263
404,0138;0,181481
404,9781;0,182237
405,9423;0,183325
406,9065;0,18434
407,8708;0,184919
408,8350;0,184984
409,7992;0,184796
410,7635;0,184794
411,7277;0,185303
412,6919;0,186317
413,6562;0,18754
414,6204;0,188605
415,5846;0,18927
416,5489;0,189496
417,5131;0,189473
418,4773;0,189569
419,4416;0,190077
420,4058;0,19096
421,3700;0,191988
422,3343;0,193043
423,2985;0,194156
424,2627;0,195372
425,2270;0,196635
426,1912;0,197772
427,1554;0,19858
428,1197;0,198955
429,0839;0,198943
430,0481;0,198709
431,0124;0,198449
431,9766;0,198302
432,9408;0,198311
433,9051;0,198444
434,8693;0,198634
435,8335;0,19882
436,7978;0,198952
437,7620;0,198982
438,7262;0,198869
439,6905;0,198597
440,6547;0,198202
441,6189;0,19777
442,5832;0,197412
443,5474;0,197201
444,5116;0,197119
445,4759;0,197053
446,4401;0,196859
447,4043;0,196435
448,3686;0,195782
449,3328;0,195026
450,2970;0,194395
451,2613;0,194128
452,2255;0,194362
453,1897;0,195031
454,1540;0,195879
455,1182;0,196539
456,0824;0,196682
457,0467;0,196178
458,0109;0,195208
458,9751;0,194171
459,9394;0,193412
460,9036;0,193013
461,8678;0,19283
462,8321;0,192665
463,7963;0,192393
464,7605;0,192032
465,7248;0,191711
466,6890;0,191589
467,6532;0,191746
468,6175;0,192144
469,5817;0,192638
470,5459;0,193056
471,5102;0,193272
472,4744;0,193282
473,4386;0,193197
474,4029;0,193157
475,3671;0,19323
476,3313;0,193388
477,2956;0,193552
478,2598;0,193654
479,2240;0,193679
480,1883;0,193673
481,1525;0,19371
482,1167;0,193858
483,0810;0,194142
484,0452;0,194537
485,0094;0,194984
485,9737;0,195419
486,9379;0,195796
487,9021;0,196095
488,8664;0,19631
489,8306;0,196433
490,7948;0,196456
491,7591;0,196376
492,7233;0,196214
493,6875;0,196022
494,6518;0,195869
495,6160;0,195816
496,5802;0,195887
497,5445;0,196063
498,5087;0,196294
499,4729;0,196523
500,4372;0,196711
501,4014;0,196848
502,3656;0,196944
503,3299;0,197008
504,2941;0,197025
505,2583;0,196972
506,2226;0,196841
507,1868;0,196683
508,1510;0,196609
509,1153;0,196765
510,0795;0,197255
511,0437;0,198083
512,0080;0,199128
512,9722;0,200175
513,9365;0,201001
514,9007;0,201451
515,8649;0,201515
516,8292;0,201337
517,7934;0,201143
518,7576;0,201107
519,7219;0,201249
520,6861;0,201448
521,6503;0,201552
522,6146;0,201487
523,5788;0,20129
524,5430;0,201071
525,5073;0,200935
526,4715;0,200894
527,4357;0,200853
528,4000;0,200677
529,3642;0,200296
530,3284;0,199754
531,2927;0,199178
532,2569;0,198708
533,2211;0,198415
534,1854;0,19827
535,1496;0,198168
536,1138;0,198008
537,0781;0,197754
538,0423;0,19745
539,0065;0,197182
539,9708;0,197023
540,9350;0,197001
541,8992;0,197104
542,8635;0,197307
543,8277;0,197594
544,7919;0,197963
545,7562;0,19841
546,7204;0,198923
547,6846;0,199469
548,6489;0,20001
549,6131;0,20051
550,5773;0,20094
551,5416;0,20129
552,5058;0,201583
553,4700;0,20187
554,4343;0,202211
555,3985;0,202625
556,3627;0,203041
557,3270;0,203291
558,2912;0,203172
559,2554;0,202547
560,2197;0,201428
561,1839;0,199982
562,1481;0,198461
563,1124;0,197075
564,0766;0,195917
565,0408;0,194964
566,0051;0,194136
566,9693;0,19338
567,9335;0,192698
568,8978;0,192119
569,8620;0,19165
570,8262;0,19125
571,7905;0,190863
572,7547;0,190455
573,7189;0,190038
574,6832;0,189657
575,6474;0,189343
576,6116;0,189081
577,5759;0,188827
578,5401;0,188537
579,5043;0,188214
580,4686;0,187905
581,4328;0,187674
582,3970;0,187556
583,3613;0,187543
584,3255;0,187588
585,2897;0,18764
586,2540;0,187664
587,2182;0,187646
588,1824;0,187578
589,1467;0,187453
590,1109;0,187261
591,0751;0,187006
592,0394;0,186711
593,0036;0,186409
593,9678;0,186127
594,9321;0,185865
595,8963;0,185599
596,8605;0,185299
597,8248;0,184948
598,7890;0,184543
599,7532;0,184093
600,7175;0,183606
601,6817;0,183082
602,6459;0,182522
603,6102;0,181941
604,5744;0,181365
605,5386;0,180823
606,5029;0,180323
607,4671;0,179838
608,4313;0,179322
609,3956;0,178734
610,3598;0,178071
611,3240;0,17737
612,2883;0,176685
613,2525;0,17605
614,2167;0,175447
615,1810;0,174805
616,1452;0,174025
617,1094;0,173036
618,0737;0,171837
619,0379;0,170503
620,0021;0,169144
620,9664;0,167852
621,9306;0,166672
622,8948;0,165602
623,8591;0,164617
624,8233;0,163708
625,7875;0,162851
626,7518;0,162054
627,7160;0,161323
628,6802;0,160647
629,6445;0,159999
630,6087;0,159346
631,5729;0,15867
632,5372;0,157971
633,5014;0,157267
634,4656;0,156583
635,4299;0,155935
636,3941;0,155331
637,3583;0,154774
638,3226;0,154265
639,2868;0,153803
640,2510;0,153383
641,2153;0,152989
642,1795;0,152599
643,1437;0,152188
644,1080;0,15174
645,0722;0,151251
646,0364;0,150731
647,0007;0,1502
647,9649;0,149685
648,9291;0,14922
649,8934;0,148837
650,8576;0,148559
651,8218;0,148394
652,7861;0,148333
653,7503;0,148359
654,7145;0,148455
655,6788;0,148614
656,6430;0,148835
657,6072;0,149103
658,5715;0,149379
659,5357;0,149596
660,4999;0,149685
661,4642;0,14963
662,4284;0,149491
663,3926;0,14937
664,3569;0,149336
665,3211;0,149336
666,2853;0,149139
667,2496;0,148389
668,2138;0,146933
669,1780;0,145132
670,1423;0,143455
671,1065;0,142011
672,0707;0,140691
673,0350;0,139359
673,9992;0,137913
674,9634;0,136319
675,9277;0,134624
676,8919;0,132922
677,8561;0,131285
678,8204;0,129745
679,7846;0,128321
680,7488;0,127059
681,7131;0,126021
682,6773;0,125242
683,6415;0,124695
684,6058;0,124309
685,5700;0,123998
686,5342;0,123697
687,4985;0,123374
688,4627;0,123023
689,4269;0,122655
690,3912;0,122279
691,3554;0,121899
692,3196;0,12151
693,2839;0,121101
694,2481;0,12067
695,2123;0,120218
696,1766;0,119761
697,1408;0,119318
698,1050;0,118905
699,0693;0,118531
700,0335;0,118195
700,9977;0,117887
701,9620;0,117588
702,9262;0,117273
703,8904;0,11692
704,8547;0,116509
705,8189;0,116037
706,7831;0,115514
707,7474;0,114958
708,7116;0,114385
709,6758;0,113799
710,6401;0,113195
711,6043;0,112567
712,5685;0,111915
713,5328;0,111253
714,4970;0,110599
715,4612;0,110179
716,4255;0,109515
717,3897;0,108823
718,3539;0,108079
719,3182;0,107273
720,2824;0,106415
721,2466;0,105533
722,2109;0,104656
723,1751;0,103798
724,1393;0,10296
725,1036;0,102138
726,0678;0,101333
727,0320;0,100558
727,9963;0,0998306
728,9605;0,099161
729,9247;0,0985443
730,8890;0,0979627
731,8532;0,0973964
732,8174;0,0968361
733,7817;0,0962874
734,7459;0,0957646
735,7101;0,0952797
736,6744;0,0948327
737,6386;0,0944091
738,6028;0,0939877
739,5671;0,0935507
740,5313;0,093093
741,4955;0,0926237
742,4598;0,09216
743,4240;0,0917182
744,3882;0,0913057
745,3525;0,0909195
746,3167;0,0905491
747,2809;0,0901817
748,2452;0,0898058
749,2094;0,0894109
750,1736;0,0889869
751,1379;0,0885239
752,1021;0,088016
753,0663;0,0874657
754,0306;0,0868871
754,9948;0,0863036
755,9590;0,0857423
756,9233;0,0852255
757,8875;0,0847644
758,8517;0,0843567
759,8160;0,0839886
760,7802;0,0836409
761,7444;0,0832949
762,7087;0,0829385
763,6729;0,0825689
764,6371;0,0821921
765,6014;0,0818182
766,5656;0,0814558
767,5298;0,0811059
768,4941;0,0807608
769,4583;0,0804081
770,4225;0,0800373
771,3868;0,0796459
772,3510;0,0792405
773,3152;0,0788326
774,2795;0,0784327
775,2437;0,0780465
776,2079;0,0776768
777,1722;0,0773275
778,1364;0,0770062
779,1006;0,0767199
780,0649;0,0764675
781,0291;0,0762335
781,9933;0,075991
782,9576;0,0757134
783,9218;0,0753897
784,8860;0,0750326
785,8503;0,0746741
786,8145;0,0743504
787,7787;0,0740832
788,7430;0,0738702
789,7072;0,0736881
790,6714;0,0735069
791,6357;0,0733055
792,5999;0,0730822
793,5641;0,0728518
794,5284;0,0726356
795,4926;0,0724474
796,4568;0,0722863
797,4211;0,0721362
798,3853;0,071975
799,3495;0,0717849
800,3138;0,07156
801,2780;0,0713078
802,2422;0,0710455
803,2065;0,0707931
804,1707;0,0705677
805,1349;0,0703799
806,0992;0,0702322
807,0634;0,070119
808,0276;0,070029
808,9919;0,0699487
809,9561;0,069868
810,9203;0,0697845
811,8846;0,0697032
812,8488;0,0696324
813,8130;0,069576
814,7773;0,0695286
815,7415;0,0694765
816,7057;0,0694042
817,6700;0,0693038
818,6342;0,0691808
819,5984;0,069053
820,5627;0,0689444
821,5269;0,0688761
822,4911;0,0688593
823,4554;0,0688915
824,4196;0,0689577
825,3839;0,0690337
826,3481;0,0690933
827,3123;0,0691156
828,2766;0,0690904
829,2408;0,06902
830,2050;0,0689144
831,1693;0,0687847
832,1335;0,0686371
833,0977;0,0684717
834,0620;0,0682856
835,0262;0,0680779
835,9904;0,0678524
836,9547;0,0676174
837,9189;0,0673819
838,8831;0,0671527
839,8474;0,0669329
840,8116;0,0667218
841,7758;0,0665174
842,7401;0,0663171
843,7043;0,0661193
844,6685;0,0659238
845,6328;0,0657327
846,5970;0,0655503
847,5612;0,0653829
848,5255;0,0652375
849,4897;0,0651211
850,4539;0,0650377
851,4182;0,064986
852,3824;0,0649574
853,3466;0,0649379
854,3109;0,0649113
855,2751;0,0648665
856,2393;0,0648017
857,2036;0,0647256
858,1678;0,0646528
859,1320;0,0645971
860,0963;0,0645661
861,0605;0,0645602
862,0247;0,0645757
862,9890;0,0646109
863,9532;0,0646696
864,9174;0,0647604
865,8817;0,0648916
866,8459;0,065064
867,8101;0,0652669
868,7744;0,0654795
869,7386;0,0656785
870,7028;0,065847
871,6671;0,0659803
872,6313;0,0660865
873,5955;0,0661806
874,5598;0,0662778
875,5240;0,0663906
876,4882;0,0665286
877,4525;0,0667013
878,4167;0,0669198
879,3809;0,0671945
880,3452;0,0675327
881,3094;0,0679368
882,2736;0,0684063
883,2379;0,0689411
884,2021;0,0695437
885,1663;0,0702189
886,1306;0,0709709
887,0948;0,0718
888,0590;0,0727004
889,0233;0,0736594
889,9875;0,0746561
890,9517;0,0756602
891,9160;0,0766322
892,8802;0,0775284
893,8444;0,0783077
894,8087;0,0789405
895,7729;0,0794125
896,7371;0,0797215
897,7014;0,079871
898,6656;0,0798626
899,6298;0,0796958
900,5941;0,0793732
901,5583;0,0789094
902,5225;0,0783358
903,4868;0,0776977
904,4510;0,0770448
905,4152;0,0764195
906,3795;0,0758493
907,3437;0,0753473
908,3079;0,0749184
909,2722;0,0745679
910,2364;0,0743054
911,2007;0,0741435
912,1649;0,0740909
913,1292;0,0741462
914,0934;0,0742957
915,0576;0,0745179
916,0219;0,0747909
916,9861;0,0751003
917,9503;0,0754411
918,9146;0,0758144
919,8788;0,076221
920,8430;0,0766553
921,8073;0,0771037
922,7715;0,0775466
923,7357;0,0779624
924,7000;0,0783319
925,6642;0,0786418
926,6284;0,0788874
927,5927;0,0790748
928,5569;0,0792212
929,5211;0,0793505
930,4854;0,0794858
931,4496;0,0796411
932,4138;0,0798192
933,3781;0,080015
934,3423;0,0802258
935,3065;0,0804576
936,2708;0,0807266
937,2350;0,0810533
938,1992;0,0814548
939,1635;0,0819404
940,1277;0,0825126
941,0919;0,0831697
942,0562;0,0839068
943,0204;0,0847142
943,9846;0,0855771
944,9489;0,0864808
945,9131;0,0874191
946,8773;0,0884023
947,8416;0,0894556
948,8058;0,0906085
949,7700;0,0918802
950,7343;0,0932706
951,6985;0,0947628
952,6627;0,0963349
953,6270;0,0979727
954,5912;0,0996752
955,5554;0,101451
956,5197;0,103307
957,4839;0,105242
958,4481;0,107245
959,4124;0,109293
960,3766;0,111366
961,3408;0,113448
962,3051;0,11553
963,2693;0,117615
964,2335;0,119708
965,1978;0,121822
966,1620;0,12397
967,1262;0,126167
968,0905;0,128428
969,0547;0,130772
970,0189;0,133222
970,9832;0,135805
971,9474;0,138554
972,9116;0,141503
973,8759;0,14468
974,8401;0,148105
975,8043;0,151783
976,7686;0,155696
977,7328;0,159805
978,6970;0,164046
979,6613;0,16833
980,6255;0,172553
981,5897;0,176602
982,5540;0,180374
983,5182;0,183785
984,4824;0,18679
985,4467;0,189381
986,4109;0,191589
987,3751;0,193469
988,3394;0,195087
989,3036;0,196499
990,2678;0,197739
991,2321;0,198818
992,1963;0,199733
993,1605;0,200481
994,1248;0,201074
995,0890;0,201543
996,0532;0,201927
997,0175;0,202263
997,9817;0,202572
998,9459;0,20287
999,9102;0,203172
1000,8744;0,203511
1001,8386;0,203933
1002,8029;0,20449
1003,7671;0,205223
1004,7313;0,206158
1005,6956;0,20731
1006,6598;0,208687
1007,6240;0,210295
1008,5883;0,212134
1009,5525;0,214184
1010,5167;0,216401
1011,4810;0,218725
1012,4452;0,22109
1013,4094;0,223439
1014,3737;0,225732
1015,3379;0,227943
1016,3021;0,230048
1017,2664;0,232023
1018,2306;0,233845
1019,1948;0,235493
1020,1591;0,236961
1021,1233;0,238258
1022,0875;0,239406
1023,0518;0,24043
1024,0160;0,241354
1024,9802;0,242193
1025,9445;0,242949
1026,9087;0,243612
1027,8729;0,244161
1028,8372;0,24456
1029,8014;0,244756
1030,7656;0,244676
1031,7299;0,244237
1032,6941;0,243367
1033,6583;0,242031
1034,6226;0,240266
1035,5868;0,238181
1036,5510;0,235942
1037,5153;0,233737
1038,4795;0,231729
1039,4437;0,230028
1040,4080;0,228687
1041,3722;0,227704
1042,3364;0,227041
1043,3007;0,226634
1044,2649;0,2264
1045,2291;0,226244
1046,1934;0,226067
1047,1576;0,225785
1048,1218;0,225334
1049,0861;0,224679
1050,0503;0,2238
1051,0145;0,222686
1051,9788;0,221331
1052,9430;0,219737
1053,9072;0,21792
1054,8715;0,215904
1055,8357;0,213705
1056,7999;0,211314
1057,7642;0,208691
1058,7284;0,205782
1059,6926;0,202553
1060,6569;0,199028
1061,6211;0,195301
1062,5853;0,19152
1063,5496;0,187844
1064,5138;0,1844
1065,4780;0,181251
1066,4423;0,1784
1067,4065;0,175805
1068,3707;0,173413
1069,3350;0,171171
1070,2992;0,169035
1071,2634;0,166965
1072,2277;0,164911
1073,1919;0,162819
1074,1561;0,160641
1075,1204;0,158351
1076,0846;0,155952
1077,0488;0,153483
1078,0131;0,151009
1078,9773;0,148598
1079,9415;0,146316
1080,9058;0,144208
1081,8700;0,142304
1082,8342;0,140614
1083,7985;0,139141
1084,7627;0,137879
1085,7269;0,136816
1086,6912;0,135935
1087,6554;0,13521
1088,6196;0,134614
1089,5839;0,134125
1090,5481;0,133733
1091,5123;0,133443
1092,4766;0,133268
1093,4408;0,133217
1094,4050;0,13328
1095,3693;0,133433
1096,3335;0,133642
1097,2977;0,133876
1098,2620;0,134117
1099,2262;0,134356
1100,1904;0,13458
1101,1547;0,134765
1102,1189;0,134875
1103,0831;0,134875
1104,0474;0,134746
1105,0116;0,134496
1105,9758;0,134151
1106,9401;0,133744
1107,9043;0,133289
1108,8685;0,132775
1109,8328;0,132161
1110,7970;0,131391
1111,7612;0,130411
1112,7255;0,1292
1113,6897;0,127782
1114,6539;0,126229
1115,6182;0,124641
1116,5824;0,123119
1117,5466;0,121729
1118,5109;0,120491
1119,4751;0,11937
1120,4393;0,118299
1121,4036;0,117192
1122,3678;0,115967
1123,3320;0,114557
1124,2963;0,112924
1125,2605;0,111065
1126,2247;0,10901
1127,1890;0,106813
1128,1532;0,104538
1129,1174;0,102238
1130,0817;0,0999466
1131,0459;0,0976792
1132,0101;0,0954476
1132,9744;0,093276
1133,9386;0,0912084
1134,9028;0,0893039
1135,8671;0,0876211
1136,8313;0,0862035
1137,7955;0,0850706
1138,7598;0,084219
1139,7240;0,0836299
1140,6882;0,0832758
1141,6525;0,0831248
1142,6167;0,0831428
1143,5809;0,0832961
1144,5452;0,0835562
1145,5094;0,0839055
1146,4736;0,0843391
1147,4379;0,0848603
1148,4021;0,0854711
1149,3663;0,0861633
1150,3306;0,0869139
1151,2948;0,0876869
1152,2590;0,0884399
1153,2233;0,0891297
1154,1875;0,0897136
1155,1517;0,0901484
1156,1160;0,0903877
1157,0802;0,0903817
1158,0444;0,0900796
1159,0087;0,0894323
1159,9729;0,0883959
1160,9371;0,086936
1161,9014;0,0850356
1162,8656;0,0827057
1163,8298;0,0799939
1164,7941;0,0769863
1165,7583;0,073799
1166,7225;0,0705598
1167,6868;0,0673879
1168,6510;0,0643776
1169,6152;0,0615914
1170,5795;0,0590627
1171,5437;0,0568039
1172,5079;0,0548141
1173,4722;0,0530843
1174,4364;0,0515989
1175,4006;0,0503351
1176,3649;0,0492651
1177,3291;0,048359
1178,2933;0,0475896
1179,2576;0,0469352
1180,2218;0,0463811
1181,1860;0,0459182
1182,1503;0,0455406
1183,1145;0,0452439
1184,0787;0,045025
1185,0430;0,0448817
1186,0072;0,0448133
1186,9714;0,0448208
1187,9357;0,0449062
1188,8999;0,0450725
1189,8641;0,0453234
1190,8284;0,0456625
1191,7926;0,0460913
1192,7568;0,0466075
1193,7211;0,0472034
1194,6853;0,0478659
1195,6495;0,0485788
1196,6138;0,049325
1197,5780;0,0500891
1198,5422;0,0508578
1199,5065;0,0516173
1200,4707;0,0523607
1201,4349;0,0530753
1202,3992;0,0537522
1203,3634;0,0543848
1204,3276;0,05497
1205,2919;0,05551
1206,2561;0,0560129
1207,2203;0,0564947
1208,1846;0,0569788
1209,1488;0,0574933
1210,1130;0,058066
1211,0773;0,0587174
1212,0415;0,0594571
1213,0057;0,0602821
1213,9700;0,0611803
1214,9342;0,0621342
1215,8984;0,0631248
1216,8627;0,0641324
1217,8269;0,0651374
1218,7911;0,0661218
1219,7554;0,0670715
1220,7196;0,0679779
1221,6838;0,0688381
1222,6481;0,0696517
1223,6123;0,0704182
1224,5765;0,0711358
1225,5408;0,071803
1226,5050;0,0724206
1227,4692;0,0729929
1228,4335;0,0735253
1229,3977;0,0740203
1230,3619;0,0744743
1231,3262;0,0748776
1232,2904;0,0752178
1233,2546;0,075485
1234,2189;0,0756767
1235,1831;0,0757994
1236,1473;0,075867
1237,1116;0,0758961
1238,0758;0,0759016
1239,0400;0,0758923
1240,0043;0,0758695
1240,9685;0,0758276
1241,9327;0,0757563
1242,8970;0,0756447
1243,8612;0,075484
1244,8254;0,0752701
1245,7897;0,0750044
1246,7539;0,0746926
1247,7181;0,0743429
1248,6824;0,0739638
1249,6466;0,0735631
1250,6108;0,0731486
1251,5751;0,0727292
1252,5393;0,072315
1253,5035;0,0719153
1254,4678;0,0715346
1255,4320;0,0711697
1256,3962;0,0708091
1257,3605;0,0704378
1258,3247;0,0700422
1259,2889;0,0696148
1260,2532;0,0691543
1261,2174;0,0686618
1262,1816;0,0681371
1263,1459;0,067577
1264,1101;0,0669775
1265,0743;0,0663376
1266,0386;0,0656608
1267,0028;0,0649538
1267,9670;0,0642235
1268,9313;0,0634751
1269,8955;0,0627122
1270,8597;0,0619381
1271,8240;0,0611564
1272,7882;0,0603709
1273,7524;0,0595858
1274,7167;0,0588068
1275,6809;0,0580422
1276,6451;0,0573031
1277,6094;0,0565992
1278,5736;0,0559337
1279,5378;0,0552996
1280,5021;0,0546818
1281,4663;0,0540655
1282,4305;0,0534443
1283,3948;0,0528259
1284,3590;0,0522292
1285,3232;0,0516774
1286,2875;0,0511896
1287,2517;0,050776
1288,2159;0,0504378
1289,1802;0,0501711
1290,1444;0,0499708
1291,1086;0,0498343
1292,0729;0,0497616
1293,0371;0,0497543
1294,0013;0,0498138
1294,9656;0,0499395
1295,9298;0,0501292
1296,8940;0,0503792
1297,8583;0,0506866
1298,8225;0,0510496
1299,7867;0,0514673
1300,7510;0,0519375
1301,7152;0,0524568
1302,6794;0,0530208
1303,6437;0,0536267
1304,6079;0,0542739
1305,5721;0,0549627
1306,5364;0,0556903
1307,5006;0,0564477
1308,4648;0,0572194
1309,4291;0,0579866
1310,3933;0,0587309
1311,3575;0,0594365
1312,3218;0,0600898
1313,2860;0,0606781
1314,2502;0,0611868
1315,2145;0,0615987
1316,1787;0,0618951
1317,1429;0,0620614
1318,1072;0,062096
1319,0714;0,0620168
1320,0356;0,0618599
1320,9999;0,0616671
1321,9641;0,0614719
1322,9283;0,0612924
1323,8926;0,0611337
1324,8568;0,0609953
1325,8210;0,0608763
1326,7853;0,0607764
1327,7495;0,0606932
1328,7137;0,0606179
1329,6780;0,0605353
1330,6422;0,060426
1331,6064;0,0602729
1332,5707;0,0600644
1333,5349;0,0597952
1334,4991;0,0594606
1335,4634;0,0590511
1336,4276;0,0585529
1337,3918;0,0579588
1338,3561;0,0572864
1339,3203;0,0565882
1340,2845;0,0559342
1341,2488;0,0553747
1342,2130;0,0549207
1343,1772;0,0545528
1344,1415;0,0542451
1345,1057;0,0539814
1346,0699;0,053763
1347,0342;0,0536066
1347,9984;0,053536
1348,9626;0,0535701
1349,9269;0,0537126
1350,8911;0,0539493
1351,8553;0,0542542
1352,8196;0,0546016
1353,7838;0,0549764
1354,7480;0,0553781
1355,7123;0,0558136
1356,6765;0,0562861
1357,6407;0,0567884
1358,6050;0,0573053
1359,5692;0,0578197
