TITLE;
DATA TYPE;INFRARED SPECTRUM
ORIGIN;JASCO
OWNER;
DATE;25/02/26
TIME;19:00:49
SPECTROMETER/DATA SYSTEM;
LOCALE;9226
RESOLUTION;
DELTAX;0,964233
XUNITS;1/CM
YUNITS;ABSORBANCE
FIRSTX;  399,1927
LASTX; 4000,6047
NPOINTS;    3736
FIRSTY;     0,16981
MAXY;     0,26044
MINY;     0,01072
XYDATA
399,1927;0,169809
400,1569;0,172037
401,1211;0,174343
402,0854;0,176139
403,0496;0,177259
404,0138;0,177773
404,9781;0,177844
405,9423;0,177627
406,9065;0,177225
407,8708;0,176694
408,8350;0,176136
409,7992;0,175787
410,7635;0,175998
411,7277;0,177041
412,6919;0,178863
413,6562;0,181022
414,6204;0,182845
415,5846;0,183636
416,5489;0,182869
417,5131;0,180534
418,4773;0,17764
419,4416;0,175971
420,4058;0,176567
421,3700;0,178943
422,3343;0,182021
423,2985;0,185038
424,2627;0,187651
425,2270;0,189749
426,1912;0,191276
427,1554;0,192162
428,1197;0,192344
429,0839;0,191848
430,0481;0,190864
431,0124;0,189744
431,9766;0,188886
432,9408;0,188565
433,9051;0,188819
434,8693;0,189454
435,8335;0,190189
436,7978;0,190805
437,7620;0,191215
438,7262;0,191428
439,6905;0,191455
440,6547;0,191276
441,6189;0,190868
442,5832;0,190274
443,5474;0,189631
444,5116;0,189109
445,4759;0,188801
446,4401;0,188669
447,4043;0,188589
448,3686;0,188451
449,3328;0,18823
450,2970;0,188004
451,2613;0,187903
452,2255;0,188019
453,1897;0,188338
454,1540;0,188731
455,1182;0,189004
456,0824;0,188973
457,0467;0,188553
458,0109;0,187831
458,9751;0,187043
459,9394;0,186441
460,9036;0,186163
461,8678;0,186214
462,8321;0,186512
463,7963;0,186934
464,7605;0,187342
465,7248;0,187618
466,6890;0,1877
467,6532;0,187608
468,6175;0,187418
469,5817;0,187223
470,5459;0,187094
471,5102;0,187072
472,4744;0,187165
473,4386;0,187351
474,4029;0,187585
475,3671;0,187804
476,3313;0,187945
477,2956;0,187975
478,2598;0,187914
479,2240;0,187845
480,1883;0,187885
481,1525;0,188125
482,1167;0,188574
483,0810;0,189153
484,0452;0,189728
485,0094;0,1902
485,9737;0,190552
486,9379;0,190845
487,9021;0,191144
488,8664;0,191462
489,8306;0,191744
490,7948;0,191913
491,7591;0,191935
492,7233;0,191859
493,6875;0,191802
494,6518;0,19187
495,6160;0,192087
496,5802;0,192378
497,5445;0,192616
498,5087;0,192691
499,4729;0,192565
500,4372;0,192305
501,4014;0,192052
502,3656;0,191961
503,3299;0,192118
504,2941;0,192509
505,2583;0,193047
506,2226;0,193633
507,1868;0,194207
508,1510;0,194766
509,1153;0,19535
510,0795;0,195999
511,0437;0,196718
512,0080;0,197455
512,9722;0,198126
513,9365;0,198654
514,9007;0,199013
515,8649;0,199249
516,8292;0,199456
517,7934;0,199716
518,7576;0,200038
519,7219;0,200341
520,6861;0,200522
521,6503;0,200519
522,6146;0,200352
523,5788;0,200103
524,5430;0,199883
525,5073;0,199778
526,4715;0,199805
527,4357;0,199905
528,4000;0,199984
529,3642;0,19997
530,3284;0,199837
531,2927;0,199604
532,2569;0,199319
533,2211;0,199037
534,1854;0,198802
535,1496;0,198632
536,1138;0,198505
537,0781;0,198374
538,0423;0,198184
539,0065;0,197908
539,9708;0,197569
540,9350;0,197243
541,8992;0,197031
542,8635;0,197011
543,8277;0,197203
544,7919;0,197559
545,7562;0,19799
546,7204;0,198407
547,6846;0,198763
548,6489;0,199056
549,6131;0,199314
550,5773;0,199561
551,5416;0,199813
552,5058;0,200079
553,4700;0,200373
554,4343;0,200705
555,3985;0,201056
556,3627;0,20136
557,3270;0,201504
558,2912;0,201367
559,2554;0,200877
560,2197;0,200055
561,1839;0,199017
562,1481;0,19793
563,1124;0,196942
564,0766;0,19612
565,0408;0,19544
566,0051;0,194824
566,9693;0,194195
567,9335;0,193531
568,8978;0,192868
569,8620;0,192272
570,8262;0,191791
571,7905;0,191432
572,7547;0,191169
573,7189;0,190969
574,6832;0,190808
575,6474;0,190679
576,6116;0,190576
577,5759;0,190492
578,5401;0,190414
579,5043;0,190329
580,4686;0,190234
581,4328;0,190133
582,3970;0,190032
583,3613;0,189944
584,3255;0,189886
585,2897;0,189878
586,2540;0,189932
587,2182;0,190041
588,1824;0,19017
589,1467;0,190272
590,1109;0,190311
591,0751;0,190286
592,0394;0,190234
593,0036;0,190201
593,9678;0,190204
594,9321;0,190215
595,8963;0,190169
596,8605;0,190013
597,8248;0,189741
598,7890;0,189397
599,7532;0,189048
600,7175;0,188741
601,6817;0,188468
602,6459;0,188173
603,6102;0,187786
604,5744;0,187259
605,5386;0,186592
606,5029;0,185815
607,4671;0,184968
608,4313;0,184083
609,3956;0,183168
610,3598;0,182226
611,3240;0,181258
612,2883;0,180272
613,2525;0,179285
614,2167;0,178311
615,1810;0,177361
616,1452;0,176435
617,1094;0,175516
618,0737;0,174575
619,0379;0,17358
620,0021;0,172514
620,9664;0,171385
621,9306;0,170232
622,8948;0,169115
623,8591;0,168099
624,8233;0,167231
625,7875;0,166489
626,7518;0,165832
627,7160;0,165201
628,6802;0,164559
629,6445;0,163898
630,6087;0,163231
631,5729;0,162572
632,5372;0,161916
633,5014;0,16124
634,4656;0,160518
635,4299;0,159745
636,3941;0,158942
637,3583;0,158157
638,3226;0,157435
639,2868;0,15681
640,2510;0,156287
641,2153;0,15585
642,1795;0,155467
643,1437;0,155099
644,1080;0,154715
645,0722;0,154295
646,0364;0,153832
647,0007;0,153337
647,9649;0,152826
648,9291;0,152325
649,8934;0,151857
650,8576;0,15144
651,8218;0,15109
652,7861;0,150818
653,7503;0,15064
654,7145;0,150575
655,6788;0,15063
656,6430;0,15079
657,6072;0,151002
658,5715;0,151186
659,5357;0,151258
660,4999;0,151176
661,4642;0,150977
662,4284;0,150763
663,3926;0,150633
664,3569;0,150617
665,3211;0,150615
666,2853;0,150363
667,2496;0,149502
668,2138;0,147935
669,1780;0,146117
670,1423;0,144566
671,1065;0,143332
672,0707;0,142218
673,0350;0,141039
673,9992;0,139692
674,9634;0,138169
675,9277;0,136558
676,8919;0,13498
677,8561;0,133509
678,8204;0,132148
679,7846;0,130873
680,7488;0,129689
681,7131;0,128629
682,6773;0,127726
683,6415;0,126979
684,6058;0,126361
685,5700;0,125844
686,5342;0,125411
687,4985;0,125056
688,4627;0,124763
689,4269;0,124505
690,3912;0,124239
691,3554;0,123931
692,3196;0,123567
693,2839;0,123158
694,2481;0,122733
695,2123;0,122321
696,1766;0,121938
697,1408;0,121577
698,1050;0,121223
699,0693;0,120858
700,0335;0,12048
700,9977;0,120097
701,9620;0,119721
702,9262;0,119348
703,8904;0,118967
704,8547;0,118556
705,8189;0,118101
706,7831;0,117606
707,7474;0,117087
708,7116;0,116562
709,6758;0,116042
710,6401;0,115523
711,6043;0,114994
712,5685;0,114446
713,5328;0,113878
714,4970;0,113297
715,4612;0,11288
716,4255;0,112269
717,3897;0,111647
718,3539;0,111008
719,3182;0,110352
720,2824;0,10968
721,2466;0,108997
722,2109;0,108299
723,1751;0,107577
724,1393;0,106824
725,1036;0,106047
726,0678;0,105277
727,0320;0,104559
727,9963;0,103935
728,9605;0,103416
729,9247;0,102978
730,8890;0,10257
731,8532;0,102146
732,8174;0,10168
733,7817;0,101176
734,7459;0,100655
735,7101;0,10014
736,6744;0,0996473
737,6386;0,099182
738,6028;0,0987443
739,5671;0,0983287
740,5313;0,097924
741,4955;0,097515
742,4598;0,0970886
743,4240;0,0966414
744,3882;0,0961815
745,3525;0,0957211
746,3167;0,0952651
747,2809;0,0948044
748,2452;0,0943209
749,2094;0,0937998
750,1736;0,0932405
751,1379;0,0926571
752,1021;0,0920681
753,0663;0,0914852
754,0306;0,0909087
754,9948;0,0903334
755,9590;0,0897596
756,9233;0,0891993
757,8875;0,0886717
758,8517;0,0881932
759,8160;0,0877678
760,7802;0,087386
761,7444;0,0870319
762,7087;0,0866927
763,6729;0,0863638
764,6371;0,0860466
765,6014;0,0857416
766,5656;0,0854426
767,5298;0,0851367
768,4941;0,0848109
769,4583;0,0844609
770,4225;0,0840956
771,3868;0,0837357
772,3510;0,0834038
773,3152;0,0831149
774,2795;0,0828701
775,2437;0,0826591
776,2079;0,0824688
777,1722;0,0822907
778,1364;0,0821223
779,1006;0,0819597
780,0649;0,0817882
781,0291;0,0815803
781,9933;0,0813044
782,9576;0,0809431
783,9218;0,080509
784,8860;0,080046
785,8503;0,079614
786,8145;0,0792631
787,7787;0,0790115
788,7430;0,0788398
789,7072;0,0787047
790,6714;0,078563
791,6357;0,0783926
792,5999;0,0781989
793,5641;0,0780065
794,5284;0,0778406
795,4926;0,0777126
796,4568;0,0776137
797,4211;0,077521
798,3853;0,0774084
799,3495;0,0772567
800,3138;0,0770598
801,2780;0,076825
802,2422;0,0765707
803,2065;0,0763213
804,1707;0,076101
805,1349;0,0759264
806,0992;0,0758007
807,0634;0,0757132
808,0276;0,075644
808,9919;0,0755738
809,9561;0,0754913
810,9203;0,0753961
811,8846;0,0752941
812,8488;0,0751907
813,8130;0,0750857
814,7773;0,0749745
815,7415;0,0748525
816,7057;0,0747206
817,6700;0,0745853
818,6342;0,0744555
819,5984;0,0743378
820,5627;0,0742352
821,5269;0,0741488
822,4911;0,0740818
823,4554;0,0740411
824,4196;0,0740336
825,3839;0,0740608
826,3481;0,0741133
827,3123;0,0741711
828,2766;0,0742085
829,2408;0,0742028
830,2050;0,0741417
831,1693;0,0740266
832,1335;0,0738706
833,0977;0,0736918
834,0620;0,0735046
835,0262;0,073314
835,9904;0,0731156
836,9547;0,0729022
837,9189;0,072672
838,8831;0,0724334
839,8474;0,0722023
840,8116;0,0719931
841,7758;0,07181
842,7401;0,0716458
843,7043;0,0714882
844,6685;0,0713299
845,6328;0,0711737
846,5970;0,0710307
847,5612;0,0709126
848,5255;0,070826
849,4897;0,0707711
850,4539;0,070745
851,4182;0,0707431
852,3824;0,0707579
853,3466;0,070776
854,3109;0,070779
855,2751;0,0707501
856,2393;0,0706839
857,2036;0,0705903
858,1678;0,0704913
859,1320;0,0704093
860,0963;0,0703569
861,0605;0,0703327
862,0247;0,0703269
862,9890;0,0703313
863,9532;0,0703471
864,9174;0,0703853
865,8817;0,0704608
866,8459;0,0705834
867,8101;0,0707506
868,7744;0,0709473
869,7386;0,0711505
870,7028;0,071338
871,6671;0,0714949
872,6313;0,0716163
873,5955;0,0717043
874,5598;0,0717635
875,5240;0,0717978
876,4882;0,071813
877,4525;0,0718212
878,4167;0,0718441
879,3809;0,0719106
880,3452;0,0720491
881,3094;0,0722795
882,2736;0,0726084
883,2379;0,0730311
884,2021;0,0735376
885,1663;0,0741195
886,1306;0,0747724
887,0948;0,075495
888,0590;0,0762856
889,0233;0,0771383
889,9875;0,0780412
890,9517;0,078975
891,9160;0,0799125
892,8802;0,0808189
893,8444;0,0816532
894,8087;0,0823711
895,7729;0,0829319
896,7371;0,0833063
897,7014;0,0834837
898,6656;0,0834745
899,6298;0,0833064
900,5941;0,0830155
901,5583;0,0826355
902,5225;0,0821923
903,4868;0,0817043
904,4510;0,081189
905,4152;0,0806699
906,3795;0,080178
907,3437;0,0797484
908,3079;0,0794123
909,2722;0,0791912
910,2364;0,0790938
911,2007;0,0791186
912,1649;0,0792565
913,1292;0,079494
914,0934;0,0798146
915,0576;0,0802003
916,0219;0,0806328
916,9861;0,0810957
917,9503;0,0815761
918,9146;0,0820646
919,8788;0,0825551
920,8430;0,0830436
921,8073;0,0835265
922,7715;0,0839987
923,7357;0,0844521
924,7000;0,0848757
925,6642;0,0852575
926,6284;0,0855888
927,5927;0,0858688
928,5569;0,0861067
929,5211;0,0863203
930,4854;0,0865314
931,4496;0,0867602
932,4138;0,0870211
933,3781;0,087322
934,3423;0,0876662
935,3065;0,088055
936,2708;0,0884896
937,2350;0,0889721
938,1992;0,0895047
939,1635;0,0900889
940,1277;0,090724
941,0919;0,0914067
942,0562;0,0921298
943,0204;0,092883
943,9846;0,0936546
944,9489;0,0944359
945,9131;0,0952253
946,8773;0,096031
947,8416;0,0968696
948,8058;0,0977611
949,7700;0,0987226
950,7343;0,0997645
951,6985;0,10089
952,6627;0,102102
953,6270;0,103403
954,5912;0,104799
955,5554;0,106298
956,5197;0,107902
957,4839;0,109605
958,4481;0,111393
959,4124;0,113251
960,3766;0,115162
961,3408;0,117114
962,3051;0,119097
963,2693;0,121104
964,2335;0,123132
965,1978;0,125183
966,1620;0,127271
967,1262;0,129421
968,0905;0,131663
969,0547;0,134031
970,0189;0,13655
970,9832;0,139237
971,9474;0,142103
972,9116;0,145164
973,8759;0,148441
974,8401;0,151957
975,8043;0,155731
976,7686;0,159759
977,7328;0,164009
978,6970;0,168416
979,6613;0,172891
980,6255;0,177328
981,5897;0,18162
982,5540;0,185662
983,5182;0,189366
984,4824;0,192661
985,4467;0,195506
986,4109;0,197899
987,3751;0,199874
988,3394;0,201493
989,3036;0,202832
990,2678;0,203962
991,2321;0,204937
992,1963;0,205791
993,1605;0,206545
994,1248;0,207214
995,0890;0,207809
996,0532;0,208349
997,0175;0,20885
997,9817;0,20933
998,9459;0,20981
999,9102;0,210315
1000,8744;0,21088
1001,8386;0,211544
1002,8029;0,212347
1003,7671;0,213324
1004,7313;0,214504
1005,6956;0,215914
1006,6598;0,217576
1007,6240;0,219508
1008,5883;0,221712
1009,5525;0,224162
1010,5167;0,226803
1011,4810;0,22956
1012,4452;0,232357
1013,4094;0,23513
1014,3737;0,237838
1015,3379;0,240449
1016,3021;0,242936
1017,2664;0,245269
1018,2306;0,247416
1019,1948;0,249361
1020,1591;0,251102
1021,1233;0,252656
1022,0875;0,254049
1023,0518;0,255299
1024,0160;0,256421
1024,9802;0,257418
1025,9445;0,258291
1026,9087;0,259041
1027,8729;0,259659
1028,8372;0,260127
1029,8014;0,260407
1030,7656;0,26044
1031,7299;0,260152
1032,6941;0,259475
1033,6583;0,258369
1034,6226;0,256848
1035,5868;0,254992
1036,5510;0,252933
1037,5153;0,25083
1038,4795;0,248833
1039,4437;0,247056
1040,4080;0,245564
1041,3722;0,244374
1042,3364;0,243464
1043,3007;0,242775
1044,2649;0,242226
1045,2291;0,24172
1046,1934;0,241165
1047,1576;0,240487
1048,1218;0,239639
1049,0861;0,238599
1050,0503;0,237356
1051,0145;0,235898
1051,9788;0,234214
1052,9430;0,232299
1053,9072;0,230166
1054,8715;0,227841
1055,8357;0,22535
1056,7999;0,222698
1057,7642;0,219864
1058,7284;0,216814
1059,6926;0,21353
1060,6569;0,210035
1061,6211;0,206402
1062,5853;0,202743
1063,5496;0,199176
1064,5138;0,195796
1065,4780;0,192658
1066,4423;0,189776
1067,4065;0,187132
1068,3707;0,184692
1069,3350;0,182415
1070,2992;0,180257
1071,2634;0,178171
1072,2277;0,176112
1073,1919;0,174031
1074,1561;0,171889
1075,1204;0,16966
1076,0846;0,167341
1077,0488;0,164957
1078,0131;0,162555
1078,9773;0,160196
1079,9415;0,157945
1080,9058;0,155853
1081,8700;0,153955
1082,8342;0,152269
1083,7985;0,1508
1084,7627;0,149545
1085,7269;0,148493
1086,6912;0,147624
1087,6554;0,14691
1088,6196;0,146322
1089,5839;0,145832
1090,5481;0,145426
1091,5123;0,145104
1092,4766;0,144875
1093,4408;0,144746
1094,4050;0,144715
1095,3693;0,14477
1096,3335;0,144889
1097,2977;0,14505
1098,2620;0,145234
1099,2262;0,145423
1100,1904;0,145597
1101,1547;0,145731
1102,1189;0,1458
1103,0831;0,145776
1104,0474;0,145647
1105,0116;0,145407
1105,9758;0,145066
1106,9401;0,144632
1107,9043;0,144112
1108,8685;0,1435
1109,8328;0,142776
1110,7970;0,141915
1111,7612;0,140894
1112,7255;0,139713
1113,6897;0,138398
1114,6539;0,137008
1115,6182;0,135614
1116,5824;0,134286
1117,5466;0,133064
1118,5109;0,131949
1119,4751;0,130906
1120,4393;0,129871
1121,4036;0,128768
1122,3678;0,12753
1123,3320;0,126104
1124,2963;0,124461
1125,2605;0,122598
1126,2247;0,120537
1127,1890;0,118322
1128,1532;0,116009
1129,1174;0,113657
1130,0817;0,111315
1131,0459;0,10902
1132,0101;0,106796
1132,9744;0,104665
1133,9386;0,102651
1134,9028;0,100784
1135,8671;0,0990985
1136,8313;0,0976223
1137,7955;0,0963712
1138,7598;0,0953433
1139,7240;0,0945201
1140,6882;0,0938705
1141,6525;0,0933577
1142,6167;0,0929475
1143,5809;0,0926172
1144,5452;0,0923599
1145,5094;0,0921853
1146,4736;0,0921123
1147,4379;0,0921578
1148,4021;0,0923262
1149,3663;0,0926047
1150,3306;0,0929665
1151,2948;0,0933786
1152,2590;0,0938081
1153,2233;0,0942238
1154,1875;0,0945912
1155,1517;0,094868
1156,1160;0,0950029
1157,0802;0,0949396
1158,0444;0,0946235
1159,0087;0,0940055
1159,9729;0,0930436
1160,9371;0,0917042
1161,9014;0,0899671
1162,8656;0,0878362
1163,8298;0,08535
1164,7941;0,0825851
1165,7583;0,0796483
1166,7225;0,0766593
1167,6868;0,0737296
1168,6510;0,0709476
1169,6152;0,0683719
1170,5795;0,0660341
1171,5437;0,0639454
1172,5079;0,0621031
1173,4722;0,060495
1174,4364;0,0591031
1175,4006;0,0579069
1176,3649;0,0568873
1177,3291;0,0560301
1178,2933;0,0553257
1179,2576;0,0547657
1180,2218;0,0543384
1181,1860;0,0540257
1182,1503;0,0538051
1183,1145;0,0536549
1184,0787;0,0535613
1185,0430;0,053521
1186,0072;0,0535413
1186,9714;0,0536345
1187,9357;0,0538134
1188,8999;0,054087
1189,8641;0,0544595
1190,8284;0,0549309
1191,7926;0,0554982
1192,7568;0,0561568
1193,7211;0,0569002
1194,6853;0,0577192
1195,6495;0,0586016
1196,6138;0,0595317
1197,5780;0,0604917
1198,5422;0,0614653
1199,5065;0,0624602
1200,4707;0,0634297
1201,4349;0,064396
1202,3992;0,0653614
1203,3634;0,0663266
1204,3276;0,0672889
1205,2919;0,0682451
1206,2561;0,0691965
1207,2203;0,0701536
1208,1846;0,0711366
1209,1488;0,0721717
1210,1130;0,0732839
1211,0773;0,0744901
1212,0415;0,0757945
1213,0057;0,0771881
1213,9700;0,0786517
1214,9342;0,0801606
1215,8984;0,0816892
1216,8627;0,0832145
1217,8269;0,0847171
1218,7911;0,0861815
1219,7554;0,0875952
1220,7196;0,088948
1221,6838;0,0902307
1222,6481;0,0914348
1223,6123;0,092553
1224,5765;0,09358
1225,5408;0,0945137
1226,5050;0,095355
1227,4692;0,0961073
1228,4335;0,0967749
1229,3977;0,0973617
1230,3619;0,0978695
1231,3262;0,0982981
1232,2904;0,0986458
1233,2546;0,0989104
1234,2189;0,0990914
1235,1831;0,0991919
1236,1473;0,0992192
1237,1116;0,0991843
1238,0758;0,0990985
1239,0400;0,0989703
1240,0043;0,098803
1240,9685;0,0985954
1241,9327;0,0983437
1242,8970;0,0980438
1243,8612;0,0976923
1244,8254;0,0972862
1245,7897;0,0968236
1246,7539;0,0963046
1247,7181;0,0957341
1248,6824;0,0951231
1249,6466;0,0944871
1250,6108;0,0938422
1251,5751;0,0932008
1252,5393;0,0925701
1253,5035;0,0919514
1254,4678;0,091342
1255,4320;0,090735
1256,3962;0,0901201
1257,3605;0,0894844
1258,3247;0,0888154
1259,2889;0,0881044
1260,2532;0,0873479
1261,2174;0,0865457
1262,1816;0,085697
1263,1459;0,0847983
1264,1101;0,0838447
1265,0743;0,0828337
1266,0386;0,0817686
1267,0028;0,0806575
1267,9670;0,0795106
1268,9313;0,0783379
1269,8955;0,0771489
1270,8597;0,0759531
1271,8240;0,0747606
1272,7882;0,0735793
1273,7524;0,0724141
1274,7167;0,0712673
1275,6809;0,0701432
1276,6451;0,0690504
1277,6094;0,0680009
1278,5736;0,0670032
1279,5378;0,0660571
1280,5021;0,0651525
1281,4663;0,0642763
1282,4305;0,063422
1283,3948;0,0625951
1284,3590;0,0618112
1285,3232;0,0610876
1286,2875;0,0604352
1287,2517;0,059856
1288,2159;0,0593455
1289,1802;0,058899
1290,1444;0,0585145
1291,1086;0,0581928
1292,0729;0,0579347
1293,0371;0,0577389
1294,0013;0,0576034
1294,9656;0,0575276
1295,9298;0,0575141
1296,8940;0,0575691
1297,8583;0,0576998
1298,8225;0,0579118
1299,7867;0,0582062
1300,7510;0,0585779
1301,7152;0,0590162
1302,6794;0,0595083
1303,6437;0,0600422
1304,6079;0,0606098
1305,5721;0,0612071
1306,5364;0,0618314
1307,5006;0,0624785
1308,4648;0,0631418
1309,4291;0,0638131
1310,3933;0,0644845
1311,3575;0,0651476
1312,3218;0,0657912
1313,2860;0,0663971
1314,2502;0,0669385
1315,2145;0,0673834
1316,1787;0,0677012
1317,1429;0,0678728
1318,1072;0,0678997
1319,0714;0,0678068
1320,0356;0,0676353
1320,9999;0,0674272
1321,9641;0,0672123
1322,9283;0,0670047
1323,8926;0,0668091
1324,8568;0,0666275
1325,8210;0,0664622
1326,7853;0,0663131
1327,7495;0,0661739
1328,7137;0,0660307
1329,6780;0,0658674
1330,6422;0,0656719
1331,6064;0,0654422
1332,5707;0,0651854
1333,5349;0,0649097
1334,4991;0,0646137
1335,4634;0,0642804
1336,4276;0,0638804
1337,3918;0,0633891
1338,3561;0,0628119
1339,3203;0,0621987
1340,2845;0,0616253
1341,2488;0,0611526
1342,2130;0,0608002
1343,1772;0,0605548
1344,1415;0,0603915
1345,1057;0,0602912
1346,0699;0,0602488
1347,0342;0,0602739
1347,9984;0,0603864
1348,9626;0,0606064
1349,9269;0,0609439
1350,8911;0,0613916
1351,8553;0,0619286
1352,8196;0,06253
1353,7838;0,0631787
1354,7480;0,0638706
1355,7123;0,064609
1356,6765;0,0653944
1357,6407;0,0662188
1358,6050;0,0670662
1359,5692;0,0679169
1360,5334;0,0687485
