TITLE;
DATA TYPE;INFRARED SPECTRUM
ORIGIN;JASCO
OWNER;
DATE;25/02/26
TIME;18:45:12
SPECTROMETER/DATA SYSTEM;
LOCALE;9226
RESOLUTION;
DELTAX;0,964233
XUNITS;1/CM
YUNITS;ABSORBANCE
FIRSTX;  399,1927
LASTX; 4000,6047
NPOINTS;    3736
FIRSTY;     0,16490
MAXY;     0,26263
MINY;     0,01028
XYDATA
399,1927;0,164898
400,1569;0,164287
401,1211;0,164796
402,0854;0,166114
403,0496;0,167859
404,0138;0,169682
404,9781;0,171301
405,9423;0,172522
406,9065;0,173268
407,8708;0,173592
408,8350;0,173642
409,7992;0,173624
410,7635;0,173755
411,7277;0,174186
412,6919;0,174914
413,6562;0,175764
414,6204;0,176464
415,5846;0,176752
416,5489;0,17648
417,5131;0,175775
418,4773;0,175203
419,4416;0,175512
420,4058;0,176945
421,3700;0,179083
422,3343;0,18138
423,2985;0,183504
424,2627;0,185305
425,2270;0,186727
426,1912;0,187766
427,1554;0,188472
428,1197;0,188931
429,0839;0,189242
430,0481;0,189495
431,0124;0,189772
431,9766;0,19014
432,9408;0,190632
433,9051;0,191214
434,8693;0,191772
435,8335;0,192137
436,7978;0,192168
437,7620;0,191836
438,7262;0,191249
439,6905;0,190592
440,6547;0,190042
441,6189;0,189691
442,5832;0,189522
443,5474;0,18943
444,5116;0,189302
445,4759;0,189081
446,4401;0,188772
447,4043;0,188404
448,3686;0,188
449,3328;0,187591
450,2970;0,187234
451,2613;0,187015
452,2255;0,187001
453,1897;0,187193
454,1540;0,187515
455,1182;0,187841
456,0824;0,188064
457,0467;0,188137
458,0109;0,188097
458,9751;0,188024
459,9394;0,187968
460,9036;0,187927
461,8678;0,187869
462,8321;0,187767
463,7963;0,18762
464,7605;0,187453
465,7248;0,187314
466,6890;0,187252
467,6532;0,187305
468,6175;0,187468
469,5817;0,187685
470,5459;0,187865
471,5102;0,187929
472,4744;0,187872
473,4386;0,187787
474,4029;0,1878
475,3671;0,187976
476,3313;0,188277
477,2956;0,188605
478,2598;0,188867
479,2240;0,189033
480,1883;0,189141
481,1525;0,189269
482,1167;0,189473
483,0810;0,189759
484,0452;0,190086
485,0094;0,190412
485,9737;0,190728
486,9379;0,191066
487,9021;0,191463
488,8664;0,191927
489,8306;0,192414
490,7948;0,192831
491,7591;0,193077
492,7233;0,193093
493,6875;0,192914
494,6518;0,192658
495,6160;0,192474
496,5802;0,192472
497,5445;0,192679
498,5087;0,193037
499,4729;0,193434
500,4372;0,193762
501,4014;0,193969
502,3656;0,194082
503,3299;0,194186
504,2941;0,194362
505,2583;0,194651
506,2226;0,195046
507,1868;0,195519
508,1510;0,196043
509,1153;0,196608
510,0795;0,197212
511,0437;0,197845
512,0080;0,198483
512,9722;0,199091
513,9365;0,199643
514,9007;0,200136
515,8649;0,200599
516,8292;0,201077
517,7934;0,201598
518,7576;0,202143
519,7219;0,202642
520,6861;0,203014
521,6503;0,203207
522,6146;0,203224
523,5788;0,203116
524,5430;0,202971
525,5073;0,202877
526,4715;0,202884
527,4357;0,202975
528,4000;0,203084
529,3642;0,203134
530,3284;0,203072
531,2927;0,202878
532,2569;0,202568
533,2211;0,202186
534,1854;0,201803
535,1496;0,201491
536,1138;0,201302
537,0781;0,201236
538,0423;0,201232
539,0065;0,201198
539,9708;0,201068
540,9350;0,200849
541,8992;0,200643
542,8635;0,200601
543,8277;0,200845
544,7919;0,201405
545,7562;0,202195
546,7204;0,203054
547,6846;0,20383
548,6489;0,204436
549,6131;0,204877
550,5773;0,205215
551,5416;0,205532
552,5058;0,205899
553,4700;0,206356
554,4343;0,206903
555,3985;0,207485
556,3627;0,207985
557,3270;0,208246
558,2912;0,208125
559,2554;0,207547
560,2197;0,206543
561,1839;0,205232
562,1481;0,203777
563,1124;0,202318
564,0766;0,200943
565,0408;0,19969
566,0051;0,198578
566,9693;0,197636
567,9335;0,19689
568,8978;0,196343
569,8620;0,195942
570,8262;0,195594
571,7905;0,195211
572,7547;0,19476
573,7189;0,194283
574,6832;0,193865
575,6474;0,193583
576,6116;0,193444
577,5759;0,193385
578,5401;0,193308
579,5043;0,193151
580,4686;0,192924
581,4328;0,192697
582,3970;0,192552
583,3613;0,19253
584,3255;0,192608
585,2897;0,192719
586,2540;0,192794
587,2182;0,192791
588,1824;0,192707
589,1467;0,192563
590,1109;0,192386
591,0751;0,192195
592,0394;0,191994
593,0036;0,191777
593,9678;0,191526
594,9321;0,191213
595,8963;0,190819
596,8605;0,190348
597,8248;0,189836
598,7890;0,189347
599,7532;0,188942
600,7175;0,188639
601,6817;0,1884
602,6459;0,18815
603,6102;0,187821
604,5744;0,187388
605,5386;0,186874
606,5029;0,186329
607,4671;0,185788
608,4313;0,185251
609,3956;0,184687
610,3598;0,184066
611,3240;0,183381
612,2883;0,182656
613,2525;0,181932
614,2167;0,181237
615,1810;0,180562
616,1452;0,17986
617,1094;0,179058
618,0737;0,178096
619,0379;0,176954
620,0021;0,175669
620,9664;0,174312
621,9306;0,172971
622,8948;0,171717
623,8591;0,170593
624,8233;0,169609
625,7875;0,168727
626,7518;0,167915
627,7160;0,167151
628,6802;0,166428
629,6445;0,165743
630,6087;0,165082
631,5729;0,164418
632,5372;0,163729
633,5014;0,163013
634,4656;0,162295
635,4299;0,161613
636,3941;0,160993
637,3583;0,160433
638,3226;0,159907
639,2868;0,159383
640,2510;0,158846
641,2153;0,158301
642,1795;0,157765
643,1437;0,157252
644,1080;0,156763
645,0722;0,156291
646,0364;0,155827
647,0007;0,155368
647,9649;0,154916
648,9291;0,154485
649,8934;0,154093
650,8576;0,153764
651,8218;0,153518
652,7861;0,153377
653,7503;0,153351
654,7145;0,153448
655,6788;0,153665
656,6430;0,153982
657,6072;0,154357
658,5715;0,154719
659,5357;0,15498
660,4999;0,15507
661,4642;0,154987
662,4284;0,154811
663,3926;0,154657
664,3569;0,154599
665,3211;0,154599
666,2853;0,154452
667,2496;0,153809
668,2138;0,15245
669,1780;0,150634
670,1423;0,148841
671,1065;0,147255
672,0707;0,145794
673,0350;0,144329
673,9992;0,142768
674,9634;0,141095
675,9277;0,139371
676,8919;0,137685
677,8561;0,136098
678,8204;0,134621
679,7846;0,133265
680,7488;0,132062
681,7131;0,13105
682,6773;0,130239
683,6415;0,129593
684,6058;0,129056
685,5700;0,128584
686,5342;0,128162
687,4985;0,127788
688,4627;0,127452
689,4269;0,127129
690,3912;0,126791
691,3554;0,126424
692,3196;0,126031
693,2839;0,125629
694,2481;0,125232
695,2123;0,124847
696,1766;0,124469
697,1408;0,12409
698,1050;0,123708
699,0693;0,123328
700,0335;0,122956
700,9977;0,122591
701,9620;0,122218
702,9262;0,121814
703,8904;0,121353
704,8547;0,120816
705,8189;0,120207
706,7831;0,119551
707,7474;0,118892
708,7116;0,118269
709,6758;0,117698
710,6401;0,117165
711,6043;0,116625
712,5685;0,116026
713,5328;0,115342
714,4970;0,114585
715,4612;0,113951
716,4255;0,113155
717,3897;0,112393
718,3539;0,111658
719,3182;0,110916
720,2824;0,110128
721,2466;0,109274
722,2109;0,108359
723,1751;0,107411
724,1393;0,106463
725,1036;0,105549
726,0678;0,104698
727,0320;0,103932
727,9963;0,103249
728,9605;0,102623
729,9247;0,102013
730,8890;0,101378
731,8532;0,100704
732,8174;0,10001
733,7817;0,0993317
734,7459;0,098705
735,7101;0,0981457
736,6744;0,0976469
737,6386;0,0971872
738,6028;0,0967422
739,5671;0,0962922
740,5313;0,0958247
741,4955;0,0953351
742,4598;0,0948281
743,4240;0,0943168
744,3882;0,0938186
745,3525;0,0933456
746,3167;0,0928974
747,2809;0,0924592
748,2452;0,0920091
749,2094;0,0915296
750,1736;0,0910159
751,1379;0,0904764
752,1021;0,0899265
753,0663;0,0893795
754,0306;0,0888417
754,9948;0,0883127
755,9590;0,0877908
756,9233;0,0872781
757,8875;0,0867827
758,8517;0,086315
759,8160;0,0858815
760,7802;0,0854796
761,7444;0,0850986
762,7087;0,0847253
763,6729;0,0843531
764,6371;0,0839863
765,6014;0,0836378
766,5656;0,0833196
767,5298;0,0830324
768,4941;0,0827618
769,4583;0,0824841
770,4225;0,0821773
771,3868;0,0818328
772,3510;0,0814584
773,3152;0,0810741
774,2795;0,0807023
775,2437;0,080359
776,2079;0,0800509
777,1722;0,0797758
778,1364;0,0795268
779,1006;0,0792944
780,0649;0,0790671
781,0291;0,0788312
781,9933;0,0785719
782,9576;0,0782776
783,9218;0,0779448
784,8860;0,0775829
785,8503;0,0772138
786,8145;0,0768646
787,7787;0,0765571
788,7430;0,076298
789,7072;0,0760755
790,6714;0,075867
791,6357;0,0756525
792,5999;0,0754269
793,5641;0,0752027
794,5284;0,0750018
795,4926;0,0748396
796,4568;0,0747144
797,4211;0,0746071
798,3853;0,0744929
799,3495;0,0743554
800,3138;0,074195
801,2780;0,0740252
802,2422;0,0738616
803,2065;0,0737119
804,1707;0,0735733
805,1349;0,0734386
806,0992;0,0733048
807,0634;0,0731762
808,0276;0,0730608
808,9919;0,0729629
809,9561;0,0728785
810,9203;0,072798
811,8846;0,0727131
812,8488;0,0726221
813,8130;0,0725296
814,7773;0,0724392
815,7415;0,0723477
816,7057;0,0722447
817,6700;0,072121
818,6342;0,0719786
819,5984;0,0718351
820,5627;0,0717183
821,5269;0,0716528
822,4911;0,0716471
823,4554;0,0716897
824,4196;0,0717541
825,3839;0,0718113
826,3481;0,0718397
827,3123;0,0718294
828,2766;0,071779
829,2408;0,0716913
830,2050;0,0715694
831,1693;0,0714165
832,1335;0,0712368
833,0977;0,0710354
834,0620;0,0708163
835,0262;0,0705799
835,9904;0,0703236
836,9547;0,0700456
837,9189;0,0697495
838,8831;0,0694471
839,8474;0,0691552
840,8116;0,0688892
841,7758;0,0686561
842,7401;0,0684532
843,7043;0,0682711
844,6685;0,0681009
845,6328;0,0679388
846,5970;0,0677866
847,5612;0,067649
848,5255;0,0675303
849,4897;0,0674329
850,4539;0,0673569
851,4182;0,0673003
852,3824;0,0672581
853,3466;0,0672216
854,3109;0,0671801
855,2751;0,0671254
856,2393;0,067057
857,2036;0,0669837
858,1678;0,0669203
859,1320;0,0668805
860,0963;0,0668705
861,0605;0,0668875
862,0247;0,0669245
862,9890;0,066978
863,9532;0,0670532
864,9174;0,0671617
865,8817;0,0673148
866,8459;0,067514
867,8101;0,0677475
868,7744;0,0679941
869,7386;0,068232
870,7028;0,0684482
871,6671;0,0686414
872,6313;0,0688185
873,5955;0,0689876
874,5598;0,0691523
875,5240;0,0693117
876,4882;0,0694643
877,4525;0,0696121
878,4167;0,0697638
879,3809;0,0699341
880,3452;0,0701418
881,3094;0,0704081
882,2736;0,070754
883,2379;0,0711979
884,2021;0,071751
885,1663;0,072414
886,1306;0,0731761
887,0948;0,0740181
888,0590;0,0749176
889,0233;0,0758528
889,9875;0,0768043
890,9517;0,0777522
891,9160;0,0786739
892,8802;0,0795417
893,8444;0,080324
894,8087;0,0809883
895,7729;0,0815043
896,7371;0,0818474
897,7014;0,0820015
898,6656;0,0819622
899,6298;0,0817385
900,5941;0,0813537
901,5583;0,0808427
902,5225;0,080247
903,4868;0,0796091
904,4510;0,0789671
905,4152;0,0783524
906,3795;0,0777884
907,3437;0,0772923
908,3079;0,0768768
909,2722;0,076552
910,2364;0,0763259
911,2007;0,0762028
912,1649;0,0761819
913,1292;0,0762546
914,0934;0,0764055
915,0576;0,0766153
916,0219;0,0768659
916,9861;0,0771452
917,9503;0,0774482
918,9146;0,077775
919,8788;0,0781259
920,8430;0,0784961
921,8073;0,0788735
922,7715;0,0792406
923,7357;0,079579
924,7000;0,0798757
925,6642;0,0801264
926,6284;0,080337
927,5927;0,0805206
928,5569;0,0806919
929,5211;0,0808618
930,4854;0,0810348
931,4496;0,0812105
932,4138;0,0813895
933,3781;0,0815795
934,3423;0,0817978
935,3065;0,082067
936,2708;0,0824071
937,2350;0,0828267
938,1992;0,0833216
939,1635;0,0838792
940,1277;0,0844884
941,0919;0,0851465
942,0562;0,0858599
943,0204;0,0866389
943,9846;0,0874902
944,9489;0,0884135
945,9131;0,0894043
946,8773;0,0904595
947,8416;0,0915819
948,8058;0,0927789
949,7700;0,0940575
950,7343;0,0954197
951,6985;0,0968612
952,6627;0,0983755
953,6270;0,0999601
954,5912;0,10162
955,5554;0,103364
956,5197;0,105204
957,4839;0,107145
958,4481;0,109182
959,4124;0,111301
960,3766;0,113481
961,3408;0,115695
962,3051;0,11792
963,2693;0,120135
964,2335;0,122336
965,1978;0,124534
966,1620;0,126759
967,1262;0,129053
968,0905;0,131459
969,0547;0,134008
970,0189;0,136718
970,9832;0,139597
971,9474;0,142649
972,9116;0,145886
973,8759;0,149329
974,8401;0,153004
975,8043;0,156929
976,7686;0,161107
977,7328;0,165511
978,6970;0,170082
979,6613;0,174727
980,6255;0,17932
981,5897;0,183717
982,5540;0,187776
983,5182;0,191381
984,4824;0,194465
985,4467;0,197022
986,4109;0,199103
987,3751;0,200798
988,3394;0,202211
989,3036;0,203433
990,2678;0,204525
991,2321;0,205522
992,1963;0,206435
993,1605;0,207271
994,1248;0,208042
995,0890;0,208767
996,0532;0,209464
997,0175;0,210142
997,9817;0,210797
998,9459;0,211418
999,9102;0,212005
1000,8744;0,212577
1001,8386;0,21318
1002,8029;0,213876
1003,7671;0,21473
1004,7313;0,21579
1005,6956;0,217089
1006,6598;0,218642
1007,6240;0,22045
1008,5883;0,222505
1009,5525;0,22478
1010,5167;0,227232
1011,4810;0,229799
1012,4452;0,232412
1013,4094;0,235008
1014,3737;0,237539
1015,3379;0,239978
1016,3021;0,24231
1017,2664;0,244525
1018,2306;0,246611
1019,1948;0,248559
1020,1591;0,250367
1021,1233;0,252046
1022,0875;0,253617
1023,0518;0,255105
1024,0160;0,256528
1024,9802;0,257886
1025,9445;0,259161
1026,9087;0,260319
1027,8729;0,261311
1028,8372;0,262077
1029,8014;0,262546
1030,7656;0,262633
1031,7299;0,262254
1032,6941;0,261339
1033,6583;0,259863
1034,6226;0,257863
1035,5868;0,255453
1036,5510;0,25281
1037,5153;0,250143
1038,4795;0,247652
1039,4437;0,245496
1040,4080;0,243766
1041,3722;0,242483
1042,3364;0,241609
1043,3007;0,241062
1044,2649;0,240738
1045,2291;0,240523
1046,1934;0,240316
1047,1576;0,240028
1048,1218;0,239596
1049,0861;0,238968
1050,0503;0,238109
1051,0145;0,236989
1051,9788;0,235595
1052,9430;0,233932
1053,9072;0,23202
1054,8715;0,229883
1055,8357;0,227527
1056,7999;0,224922
1057,7642;0,222012
1058,7284;0,218741
1059,6926;0,215091
1060,6569;0,21111
1061,6211;0,206912
1062,5853;0,20265
1063,5496;0,19848
1064,5138;0,194529
1065,4780;0,190875
1066,4423;0,18755
1067,4065;0,184549
1068,3707;0,181836
1069,3350;0,179359
1070,2992;0,177052
1071,2634;0,174852
1072,2277;0,1727
1073,1919;0,170546
1074,1561;0,168351
1075,1204;0,166089
1076,0846;0,16375
1077,0488;0,16135
1078,0131;0,158932
1078,9773;0,156561
1079,9415;0,154315
1080,9058;0,152258
1081,8700;0,150433
1082,8342;0,148856
1083,7985;0,147518
1084,7627;0,146397
1085,7269;0,145467
1086,6912;0,1447
1087,6554;0,144069
1088,6196;0,143551
1089,5839;0,143125
1090,5481;0,142784
1091,5123;0,142535
1092,4766;0,142392
1093,4408;0,142372
1094,4050;0,14248
1095,3693;0,142702
1096,3335;0,143013
1097,2977;0,143378
1098,2620;0,143765
1099,2262;0,144149
1100,1904;0,144505
1101,1547;0,144807
1102,1189;0,145027
1103,0831;0,145138
1104,0474;0,145121
1105,0116;0,144973
1105,9758;0,144708
1106,9401;0,144344
1107,9043;0,143888
1108,8685;0,143327
1109,8328;0,142618
1110,7970;0,141704
1111,7612;0,140533
1112,7255;0,139087
1113,6897;0,137404
1114,6539;0,135574
1115,6182;0,133719
1116,5824;0,131958
1117,5466;0,130371
1118,5109;0,128982
1119,4751;0,127748
1120,4393;0,126582
1121,4036;0,125377
1122,3678;0,124032
1123,3320;0,122472
1124,2963;0,120664
1125,2605;0,118613
1126,2247;0,11636
1127,1890;0,113966
1128,1532;0,111499
1129,1174;0,109018
1130,0817;0,106566
1131,0459;0,104172
1132,0101;0,101849
1132,9744;0,099612
1133,9386;0,0974838
1134,9028;0,095502
1135,8671;0,0937153
1136,8313;0,0921739
1137,7955;0,0909147
1138,7598;0,0899509
1139,7240;0,0892687
1140,6882;0,0888329
1141,6525;0,0885991
1142,6167;0,088525
1143,5809;0,088578
1144,5452;0,0887369
1145,5094;0,0889895
1146,4736;0,089329
1147,4379;0,0897515
1148,4021;0,0902546
1149,3663;0,0908352
1150,3306;0,0914864
1151,2948;0,0921938
1152,2590;0,0929339
1153,2233;0,0936736
1154,1875;0,0943711
1155,1517;0,0949769
1156,1160;0,0954345
1157,0802;0,0956807
1158,0444;0,0956481
1159,0087;0,0952689
1159,9729;0,0944813
1160,9371;0,0932369
1161,9014;0,09151
1162,8656;0,0893064
1163,8298;0,0866704
1164,7941;0,0836863
1165,7583;0,0804726
1166,7225;0,0771669
1167,6868;0,0739056
1168,6510;0,0708033
1169,6152;0,0679388
1170,5795;0,065351
1171,5437;0,0630453
1172,5079;0,0610058
1173,4722;0,0592087
1174,4364;0,0576311
1175,4006;0,056256
1176,3649;0,0550714
1177,3291;0,054067
1178,2933;0,0532309
1179,2576;0,0525467
1180,2218;0,0519927
1181,1860;0,051545
1182,1503;0,0511818
1183,1145;0,0508886
1184,0787;0,050661
1185,0430;0,050504
1186,0072;0,050427
1186,9714;0,0504389
1187,9357;0,0505441
1188,8999;0,0507421
1189,8641;0,0510303
1190,8284;0,0514068
1191,7926;0,0518713
1192,7568;0,0524236
1193,7211;0,0530602
1194,6853;0,0537721
1195,6495;0,0545444
1196,6138;0,0553586
1197,5780;0,0561948
1198,5422;0,0570351
1199,5065;0,0578621
1200,4707;0,058674
1201,4349;0,0594627
1202,3992;0,0602265
1203,3634;0,0609638
1204,3276;0,0616703
1205,2919;0,0623397
1206,2561;0,0629672
1207,2203;0,0635564
1208,1846;0,0641237
1209,1488;0,0646984
1210,1130;0,0653161
1211,0773;0,0660083
1212,0415;0,0667926
1213,0057;0,0676693
1213,9700;0,0686235
1214,9342;0,0696328
1215,8984;0,0706734
1216,8627;0,0717249
1217,8269;0,0727711
1218,7911;0,0737997
1219,7554;0,0748017
1220,7196;0,0757711
1221,6838;0,0767029
1222,6481;0,0775921
1223,6123;0,0784325
1224,5765;0,0792177
1225,5408;0,0799439
1226,5050;0,0806119
1227,4692;0,0812275
1228,4335;0,0817986
1229,3977;0,0823311
1230,3619;0,0828251
1231,3262;0,0832746
1232,2904;0,0836695
1233,2546;0,0839998
1234,2189;0,0842596
1235,1831;0,0844492
1236,1473;0,0845764
1237,1116;0,0846538
1238,0758;0,0846956
1239,0400;0,0847133
1240,0043;0,0847116
1240,9685;0,0846879
1241,9327;0,0846335
1242,8970;0,0845375
1243,8612;0,0843908
1244,8254;0,084188
1245,7897;0,0839283
1246,7539;0,083615
1247,7181;0,0832551
1248,6824;0,0828587
1249,6466;0,0824392
1250,6108;0,0820118
1251,5751;0,081591
1252,5393;0,0811864
1253,5035;0,0808
1254,4678;0,0804256
1255,4320;0,0800506
1256,3962;0,0796622
1257,3605;0,0792517
1258,3247;0,0788171
1259,2889;0,078361
1260,2532;0,0778851
1261,2174;0,0773852
1262,1816;0,0768512
1263,1459;0,0762719
1264,1101;0,0756417
1265,0743;0,0749637
1266,0386;0,0742477
1267,0028;0,0735044
1267,9670;0,0727402
1268,9313;0,0719565
1269,8955;0,0711534
1270,8597;0,0703332
1271,8240;0,0695014
1272,7882;0,0686647
1273,7524;0,0678287
1274,7167;0,0669992
1275,6809;0,0661843
1276,6451;0,0653953
1277,6094;0,064643
1278,5736;0,0639309
1279,5378;0,0632509
1280,5021;0,0625863
1281,4663;0,0619211
1282,4305;0,0612502
1283,3948;0,0605844
1284,3590;0,0599454
1285,3232;0,0593571
1286,2875;0,0588367
1287,2517;0,0583917
1288,2159;0,0580211
1289,1802;0,0577207
1290,1444;0,057486
1291,1086;0,0573148
1292,0729;0,0572071
1293,0371;0,0571648
1294,0013;0,057191
1294,9656;0,0572886
1295,9298;0,0574592
1296,8940;0,0577031
1297,8583;0,0580201
1298,8225;0,0584103
1299,7867;0,0588738
1300,7510;0,0594082
1301,7152;0,060007
1302,6794;0,0606606
1303,6437;0,0613598
1304,6079;0,0620992
1305,5721;0,0628769
1306,5364;0,0636914
1307,5006;0,064536
1308,4648;0,0653966
1309,4291;0,066254
1310,3933;0,0670872
1311,3575;0,0678763
1312,3218;0,0686032
1313,2860;0,0692491
1314,2502;0,0697934
1315,2145;0,070214
1316,1787;0,07049
1317,1429;0,0706087
1318,1072;0,0705737
1319,0714;0,07041
1320,0356;0,0701589
1320,9999;0,0698649
1321,9641;0,069562
1322,9283;0,0692698
1323,8926;0,0689979
1324,8568;0,0687534
1325,8210;0,0685433
1326,7853;0,0683727
1327,7495;0,0682393
1328,7137;0,0681301
1329,6780;0,0680233
1330,6422;0,0678953
1331,6064;0,0677282
1332,5707;0,0675135
1333,5349;0,0672488
1334,4991;0,0669283
1335,4634;0,0665355
1336,4276;0,0660435
1337,3918;0,0654312
1338,3561;0,0647104
1339,3203;0,0639418
1340,2845;0,0632142
1341,2488;0,0625956
1342,2130;0,062103
1343,1772;0,0617124
1344,1415;0,0613879
1345,1057;0,0611053
1346,0699;0,0608618
1347,0342;0,0606761
1347,9984;0,0605775
1348,9626;0,0605918
1349,9269;0,0607276
1350,8911;0,0609719
1351,8553;0,0612962
1352,8196;0,0616703
1353,7838;0,0620761
1354,7480;0,0625135
1355,7123;0,0629927
1356,6765;0,0635197
1357,6407;0,0640851
1358,6050;0,0646642
1359,5692;0,0652264
