TITLE;
DATA TYPE;INFRARED SPECTRUM
ORIGIN;JASCO
OWNER;
DATE;25/02/26
TIME;18:18:47
SPECTROMETER/DATA SYSTEM;
LOCALE;9226
RESOLUTION;
DELTAX;0,964233
XUNITS;1/CM
YUNITS;ABSORBANCE
FIRSTX;  399,1927
LASTX; 4000,6047
NPOINTS;    3736
FIRSTY;     0,15721
MAXY;     0,22962
MINY;     0,00977
XYDATA
399,1927;0,157211
400,1569;0,159115
401,1211;0,160898
402,0854;0,162236
403,0496;0,163077
404,0138;0,163548
404,9781;0,163878
405,9423;0,164283
406,9065;0,164833
407,8708;0,165393
408,8350;0,165715
409,7992;0,165638
410,7635;0,165252
411,7277;0,164876
412,6919;0,164838
413,6562;0,165241
414,6204;0,165926
415,5846;0,166587
416,5489;0,166932
417,5131;0,166858
418,4773;0,166608
419,4416;0,166687
420,4058;0,16737
421,3700;0,168467
422,3343;0,169643
423,2985;0,170708
424,2627;0,171647
425,2270;0,172551
426,1912;0,173503
427,1554;0,174504
428,1197;0,175451
429,0839;0,17619
430,0481;0,176615
431,0124;0,17675
431,9766;0,176764
432,9408;0,176887
433,9051;0,177267
434,8693;0,177867
435,8335;0,178481
436,7978;0,178872
437,7620;0,178937
438,7262;0,178747
439,6905;0,178467
440,6547;0,178217
441,6189;0,177996
442,5832;0,177704
443,5474;0,177256
444,5116;0,17669
445,4759;0,176163
446,4401;0,175839
447,4043;0,175778
448,3686;0,175912
449,3328;0,1761
450,2970;0,176216
451,2613;0,176195
452,2255;0,17603
453,1897;0,17574
454,1540;0,175346
455,1182;0,174877
456,0824;0,174415
457,0467;0,1741
458,0109;0,174059
458,9751;0,174296
459,9394;0,174668
460,9036;0,174985
461,8678;0,175138
462,8321;0,175132
463,7963;0,175049
464,7605;0,17498
465,7248;0,174961
466,6890;0,174953
467,6532;0,174875
468,6175;0,174666
469,5817;0,174334
470,5459;0,173966
471,5102;0,173699
472,4744;0,17366
473,4386;0,173889
474,4029;0,174312
475,3671;0,174789
476,3313;0,175189
477,2956;0,175425
478,2598;0,175477
479,2240;0,175384
480,1883;0,175237
481,1525;0,175161
482,1167;0,175274
483,0810;0,175645
484,0452;0,176253
485,0094;0,176972
485,9737;0,177614
486,9379;0,178021
487,9021;0,178125
488,8664;0,17796
489,8306;0,177638
490,7948;0,177294
491,7591;0,177044
492,7233;0,176945
493,6875;0,176995
494,6518;0,177156
495,6160;0,177386
496,5802;0,177645
497,5445;0,177897
498,5087;0,178093
499,4729;0,178186
500,4372;0,178148
501,4014;0,178007
502,3656;0,177855
503,3299;0,177814
504,2941;0,177973
505,2583;0,178341
506,2226;0,178846
507,1868;0,179374
508,1510;0,179822
509,1153;0,18015
510,0795;0,180394
511,0437;0,18063
512,0080;0,180926
512,9722;0,181307
513,9365;0,181754
514,9007;0,182221
515,8649;0,182662
516,8292;0,183036
517,7934;0,183313
518,7576;0,183475
519,7219;0,18353
520,6861;0,183513
521,6503;0,183485
522,6146;0,183509
523,5788;0,183628
524,5430;0,183846
525,5073;0,184112
526,4715;0,184334
527,4357;0,184414
528,4000;0,184297
529,3642;0,183983
530,3284;0,183517
531,2927;0,182976
532,2569;0,182448
533,2211;0,18201
534,1854;0,181703
535,1496;0,181516
536,1138;0,181396
537,0781;0,181279
538,0423;0,181117
539,0065;0,1809
539,9708;0,180654
540,9350;0,180429
541,8992;0,180283
542,8635;0,180267
543,8277;0,180416
544,7919;0,180728
545,7562;0,181164
546,7204;0,181645
547,6846;0,182086
548,6489;0,182424
549,6131;0,182647
550,5773;0,182799
551,5416;0,182955
552,5058;0,183191
553,4700;0,183552
554,4343;0,184024
555,3985;0,18453
556,3627;0,184936
557,3270;0,18509
558,2912;0,184866
559,2554;0,184222
560,2197;0,183215
561,1839;0,181991
562,1481;0,180722
563,1124;0,179548
564,0766;0,178531
565,0408;0,177662
566,0051;0,176902
566,9693;0,176222
567,9335;0,175629
568,8978;0,175146
569,8620;0,174786
570,8262;0,174531
571,7905;0,174337
572,7547;0,174161
573,7189;0,173974
574,6832;0,173768
575,6474;0,173546
576,6116;0,173311
577,5759;0,173065
578,5401;0,172808
579,5043;0,172548
580,4686;0,172302
581,4328;0,172092
582,3970;0,171934
583,3613;0,171839
584,3255;0,171803
585,2897;0,17181
586,2540;0,171834
587,2182;0,171845
588,1824;0,171818
589,1467;0,171738
590,1109;0,171608
591,0751;0,171446
592,0394;0,171279
593,0036;0,171125
593,9678;0,170981
594,9321;0,170821
595,8963;0,170612
596,8605;0,170329
597,8248;0,169977
598,7890;0,169586
599,7532;0,169201
600,7175;0,168853
601,6817;0,168543
602,6459;0,168244
603,6102;0,167921
604,5744;0,167546
605,5386;0,167114
606,5029;0,166625
607,4671;0,166084
608,4313;0,165492
609,3956;0,164856
610,3598;0,164194
611,3240;0,163539
612,2883;0,162919
613,2525;0,162339
614,2167;0,161777
615,1810;0,16118
616,1452;0,160488
617,1094;0,159658
618,0737;0,158686
619,0379;0,157608
620,0021;0,156482
620,9664;0,155364
621,9306;0,154293
622,8948;0,15329
623,8591;0,152364
624,8233;0,151526
625,7875;0,15076
626,7518;0,150061
627,7160;0,149413
628,6802;0,148794
629,6445;0,148175
630,6087;0,147532
631,5729;0,146856
632,5372;0,146157
633,5014;0,145463
634,4656;0,144807
635,4299;0,144212
636,3941;0,143687
637,3583;0,143228
638,3226;0,142819
639,2868;0,142442
640,2510;0,142072
641,2153;0,141682
642,1795;0,14125
643,1437;0,140772
644,1080;0,140263
645,0722;0,139755
646,0364;0,139275
647,0007;0,138837
647,9649;0,138434
648,9291;0,138052
649,8934;0,137686
650,8576;0,137348
651,8218;0,137059
652,7861;0,136843
653,7503;0,136716
654,7145;0,136688
655,6788;0,136767
656,6430;0,136951
657,6072;0,137211
658,5715;0,137477
659,5357;0,137652
660,4999;0,137657
661,4642;0,13749
662,4284;0,13724
663,3926;0,137034
664,3569;0,136952
665,3211;0,136952
666,2853;0,136828
667,2496;0,136249
668,2138;0,135025
669,1780;0,133421
670,1423;0,131866
671,1065;0,130501
672,0707;0,129251
673,0350;0,128007
673,9992;0,126702
674,9634;0,125336
675,9277;0,12397
676,8919;0,122676
677,8561;0,12148
678,8204;0,120358
679,7846;0,119287
680,7488;0,118282
681,7131;0,117389
682,6773;0,116642
683,6415;0,116046
684,6058;0,115578
685,5700;0,115216
686,5342;0,114947
687,4985;0,114757
688,4627;0,114614
689,4269;0,114468
690,3912;0,114267
691,3554;0,113981
692,3196;0,113614
693,2839;0,113196
694,2481;0,112764
695,2123;0,112349
696,1766;0,111966
697,1408;0,111616
698,1050;0,111295
699,0693;0,110998
700,0335;0,110718
700,9977;0,110441
701,9620;0,110148
702,9262;0,109818
703,8904;0,109441
704,8547;0,109015
705,8189;0,108552
706,7831;0,108075
707,7474;0,107603
708,7116;0,107144
709,6758;0,10669
710,6401;0,106222
711,6043;0,105716
712,5685;0,105161
713,5328;0,104562
714,4970;0,103938
715,4612;0,103478
716,4255;0,102825
717,3897;0,102163
718,3539;0,101486
719,3182;0,100789
720,2824;0,100081
721,2466;0,0993778
722,2109;0,0986945
723,1751;0,0980308
724,1393;0,0973746
725,1036;0,0967123
726,0678;0,0960407
727,0320;0,0953719
727,9963;0,0947263
728,9605;0,0941186
729,9247;0,0935493
730,8890;0,0930058
731,8532;0,0924734
732,8174;0,0919469
733,7817;0,0914334
734,7459;0,0909471
735,7101;0,0904995
736,6744;0,0900928
737,6386;0,0897178
738,6028;0,0893582
739,5671;0,0889957
740,5313;0,0886153
741,4955;0,0882101
742,4598;0,0877831
743,4240;0,0873468
744,3882;0,0869178
745,3525;0,0865101
746,3167;0,0861287
747,2809;0,0857667
748,2452;0,085409
749,2094;0,0850374
750,1736;0,0846375
751,1379;0,0842022
752,1021;0,0837316
753,0663;0,083232
754,0306;0,0827137
754,9948;0,08219
755,9590;0,081675
756,9233;0,081182
757,8875;0,0807204
758,8517;0,0802944
759,8160;0,0799023
760,7802;0,0795385
761,7444;0,0791968
762,7087;0,0788725
763,6729;0,0785628
764,6371;0,0782659
765,6014;0,0779781
766,5656;0,0776929
767,5298;0,0774012
768,4941;0,0770937
769,4583;0,0767642
770,4225;0,0764125
771,3868;0,0760457
772,3510;0,0756765
773,3152;0,0753205
774,2795;0,0749907
775,2437;0,0746937
776,2079;0,0744273
777,1722;0,0741815
778,1364;0,0739427
779,1006;0,0736983
780,0649;0,0734401
781,0291;0,0731646
781,9933;0,0728715
782,9576;0,0725625
783,9218;0,0722424
784,8860;0,0719216
785,8503;0,0716164
786,8145;0,0713435
787,7787;0,0711115
788,7430;0,0709126
789,7072;0,0707244
790,6714;0,0705203
791,6357;0,0702869
792,5999;0,0700338
793,5641;0,0697905
794,5284;0,0695904
795,4926;0,069451
796,4568;0,069365
797,4211;0,069305
798,3853;0,0692395
799,3495;0,0691473
800,3138;0,0690232
801,2780;0,0688729
802,2422;0,0687052
803,2065;0,0685275
804,1707;0,0683462
805,1349;0,0681702
806,0992;0,0680108
807,0634;0,0678782
808,0276;0,0677765
808,9919;0,0677016
809,9561;0,0676437
810,9203;0,067592
811,8846;0,0675395
812,8488;0,0674854
813,8130;0,0674337
814,7773;0,0673897
815,7415;0,0673539
816,7057;0,0673194
817,6700;0,0672724
818,6342;0,0671988
819,5984;0,0670945
820,5627;0,0669725
821,5269;0,0668612
822,4911;0,066793
823,4554;0,0667884
824,4196;0,0668454
825,3839;0,06694
826,3481;0,0670388
827,3123;0,0671131
828,2766;0,0671474
829,2408;0,067137
830,2050;0,0670811
831,1693;0,0669769
832,1335;0,0668206
833,0977;0,0666134
834,0620;0,0663654
835,0262;0,0660948
835,9904;0,0658214
836,9547;0,06556
837,9189;0,0653177
838,8831;0,0650954
839,8474;0,0648913
840,8116;0,0647024
841,7758;0,0645245
842,7401;0,0643527
843,7043;0,064183
844,6685;0,0640149
845,6328;0,0638524
846,5970;0,0637014
847,5612;0,0635665
848,5255;0,0634495
849,4897;0,0633514
850,4539;0,0632757
851,4182;0,0632281
852,3824;0,0632129
853,3466;0,0632261
854,3109;0,0632521
855,2751;0,0632673
856,2393;0,0632506
857,2036;0,0631943
858,1678;0,0631087
859,1320;0,0630178
860,0963;0,0629484
861,0605;0,0629187
862,0247;0,0629334
862,9890;0,0629864
863,9532;0,0630684
864,9174;0,0631745
865,8817;0,0633049
866,8459;0,0634606
867,8101;0,063637
868,7744;0,0638207
869,7386;0,0639938
870,7028;0,064142
871,6671;0,0642619
872,6313;0,0643617
873,5955;0,0644555
874,5598;0,0645551
875,5240;0,0646646
876,4882;0,0647818
877,4525;0,0649041
878,4167;0,0650345
879,3809;0,0651837
880,3452;0,0653677
881,3094;0,0656042
882,2736;0,0659096
883,2379;0,0662977
884,2021;0,066779
885,1663;0,0673588
886,1306;0,0680358
887,0948;0,0688011
888,0590;0,0696387
889,0233;0,0705274
889,9875;0,0714412
890,9517;0,0723496
891,9160;0,0732185
892,8802;0,074014
893,8444;0,0747072
894,8087;0,0752778
895,7729;0,0757138
896,7371;0,0760079
897,7014;0,076153
898,6656;0,0761436
899,6298;0,0759811
900,5941;0,0756809
901,5583;0,0752742
902,5225;0,0748022
903,4868;0,0743051
904,4510;0,0738127
905,4152;0,0733414
906,3795;0,0728996
907,3437;0,0724953
908,3079;0,0721418
909,2722;0,0718585
910,2364;0,0716658
911,2007;0,0715788
912,1649;0,0716032
913,1292;0,0717329
914,0934;0,071952
915,0576;0,0722381
916,0219;0,0725678
916,9861;0,0729222
917,9503;0,0732901
918,9146;0,0736687
919,8788;0,0740591
920,8430;0,074461
921,8073;0,0748675
922,7715;0,0752635
923,7357;0,0756291
924,7000;0,075945
925,6642;0,0761992
926,6284;0,0763914
927,5927;0,0765339
928,5569;0,0766484
929,5211;0,0767594
930,4854;0,0768863
931,4496;0,0770386
932,4138;0,0772169
933,3781;0,0774178
934,3423;0,0776415
935,3065;0,0778955
936,2708;0,0781928
937,2350;0,0785455
938,1992;0,0789586
939,1635;0,0794294
940,1277;0,079951
941,0919;0,0805186
942,0562;0,0811324
943,0204;0,081797
943,9846;0,082518
944,9489;0,0833002
945,9131;0,0841482
946,8773;0,0850679
947,8416;0,0860672
948,8058;0,0871529
949,7700;0,0883268
950,7343;0,0895844
951,6985;0,0909169
952,6627;0,0923153
953,6270;0,093774
954,5912;0,0952915
955,5554;0,0968689
956,5197;0,0985087
957,4839;0,100215
958,4481;0,101993
959,4124;0,103844
960,3766;0,105765
961,3408;0,107739
962,3051;0,109737
963,2693;0,111731
964,2335;0,113699
965,1978;0,115638
966,1620;0,117567
967,1262;0,119522
968,0905;0,12154
969,0547;0,123656
970,0189;0,125896
970,9832;0,128278
971,9474;0,130817
972,9116;0,133525
973,8759;0,136418
974,8401;0,139508
975,8043;0,142808
976,7686;0,146317
977,7328;0,150018
978,6970;0,153866
979,6613;0,157785
980,6255;0,161667
981,5897;0,165394
982,5540;0,16885
983,5182;0,171949
984,4824;0,17465
985,4467;0,176956
986,4109;0,178912
987,3751;0,180576
988,3394;0,182008
989,3036;0,183251
990,2678;0,18433
991,2321;0,185256
992,1963;0,186037
993,1605;0,186689
994,1248;0,187238
995,0890;0,187714
996,0532;0,188142
997,0175;0,188535
997,9817;0,188896
998,9459;0,189233
999,9102;0,189562
1000,8744;0,189922
1001,8386;0,190359
1002,8029;0,190917
1003,7671;0,191631
1004,7313;0,19252
1005,6956;0,193599
1006,6598;0,194878
1007,6240;0,196368
1008,5883;0,198063
1009,5525;0,199941
1010,5167;0,201955
1011,4810;0,204048
1012,4452;0,206169
1013,4094;0,208279
1014,3737;0,210353
1015,3379;0,212372
1016,3021;0,214312
1017,2664;0,216146
1018,2306;0,217848
1019,1948;0,219401
1020,1591;0,220809
1021,1233;0,222091
1022,0875;0,223272
1023,0518;0,224377
1024,0160;0,225417
1024,9802;0,226389
1025,9445;0,227278
1026,9087;0,228064
1027,8729;0,228725
1028,8372;0,229232
1029,8014;0,229547
1030,7656;0,229617
1031,7299;0,229377
1032,6941;0,228769
1033,6583;0,22776
1034,6226;0,226369
1035,5868;0,224674
1036,5510;0,222803
1037,5153;0,220908
1038,4795;0,219131
1039,4437;0,217582
1040,4080;0,216318
1041,3722;0,215351
1042,3364;0,214648
1043,3007;0,214151
1044,2649;0,213785
1045,2291;0,213473
1046,1934;0,213142
1047,1576;0,212727
1048,1218;0,212178
1049,0861;0,211454
1050,0503;0,210526
1051,0145;0,209372
1051,9788;0,207989
1052,9430;0,206388
1053,9072;0,204597
1054,8715;0,202647
1055,8357;0,200557
1056,7999;0,198318
1057,7642;0,195894
1058,7284;0,193237
1059,6926;0,190317
1060,6569;0,187152
1061,6211;0,183815
1062,5853;0,180429
1063,5496;0,177128
1064,5138;0,174025
1065,4780;0,171185
1066,4423;0,168618
1067,4065;0,166296
1068,3707;0,164173
1069,3350;0,162201
1070,2992;0,160338
1071,2634;0,158544
1072,2277;0,156774
1073,1919;0,15498
1074,1561;0,153118
1075,1204;0,15116
1076,0846;0,149102
1077,0488;0,146971
1078,0131;0,144818
1078,9773;0,142705
1079,9415;0,140691
1080,9058;0,138825
1081,8700;0,137133
1082,8342;0,135628
1083,7985;0,134308
1084,7627;0,133167
1085,7269;0,132189
1086,6912;0,131356
1087,6554;0,130643
1088,6196;0,130028
1089,5839;0,129498
1090,5481;0,129055
1091,5123;0,128713
1092,4766;0,128491
1093,4408;0,128396
1094,4050;0,128419
1095,3693;0,128537
1096,3335;0,128719
1097,2977;0,128941
1098,2620;0,129183
1099,2262;0,129425
1100,1904;0,129646
1101,1547;0,12982
1102,1189;0,129923
1103,0831;0,12994
1104,0474;0,129869
1105,0116;0,129718
1105,9758;0,129497
1106,9401;0,129212
1107,9043;0,128856
1108,8685;0,128412
1109,8328;0,127852
1110,7970;0,127145
1111,7612;0,126268
1112,7255;0,125216
1113,6897;0,124015
1114,6539;0,122718
1115,6182;0,121396
1116,5824;0,12012
1117,5466;0,118939
1118,5109;0,117869
1119,4751;0,116887
1120,4393;0,11594
1121,4036;0,114957
1122,3678;0,113861
1123,3320;0,112587
1124,2963;0,111096
1125,2605;0,109381
1126,2247;0,107469
1127,1890;0,105409
1128,1532;0,10326
1129,1174;0,101075
1130,0817;0,0988931
1131,0459;0,0967418
1132,0101;0,0946437
1132,9744;0,0926236
1133,9386;0,0907128
1134,9028;0,0889475
1135,8671;0,0873639
1136,8313;0,0859916
1137,7955;0,0848491
1138,7598;0,0839417
1139,7240;0,0832614
1140,6882;0,0827894
1141,6525;0,0824989
1142,6167;0,0823595
1143,5809;0,0823418
1144,5452;0,0824222
1145,5094;0,0825858
1146,4736;0,0828264
1147,4379;0,0831431
1148,4021;0,0835355
1149,3663;0,0839976
1150,3306;0,084515
1151,2948;0,0850639
1152,2590;0,0856126
1153,2233;0,086125
1154,1875;0,086562
1155,1517;0,0868838
1156,1160;0,0870485
1157,0802;0,0870114
1158,0444;0,0867244
1159,0087;0,0861377
1159,9729;0,0852047
1160,9371;0,0838905
1161,9014;0,0821814
1162,8656;0,0800937
1163,8298;0,0776768
1164,7941;0,0750106
1165,7583;0,0721945
1166,7225;0,0693344
1167,6868;0,0665283
1168,6510;0,0638563
1169,6152;0,0613749
1170,5795;0,0591177
1171,5437;0,0570993
1172,5079;0,0553196
1173,4722;0,0537686
1174,4364;0,0524285
1175,4006;0,0512769
1176,3649;0,0502899
1177,3291;0,0494464
1178,2933;0,0487304
1179,2576;0,0481321
1180,2218;0,0476449
1181,1860;0,0472615
1182,1503;0,0469708
1183,1145;0,0467584
1184,0787;0,0466094
1185,0430;0,0465139
1186,0072;0,0464701
1186,9714;0,0464846
1187,9357;0,046569
1188,8999;0,0467345
1189,8641;0,046987
1190,8284;0,0473256
1191,7926;0,047744
1192,7568;0,0482346
1193,7211;0,0487909
1194,6853;0,0494082
1195,6495;0,0500813
1196,6138;0,0508022
1197,5780;0,0515584
1198,5422;0,0523352
1199,5065;0,0531233
1200,4707;0,0539015
1201,4349;0,054668
1202,3992;0,0554177
1203,3634;0,0561461
1204,3276;0,0568491
1205,2919;0,0575247
1206,2561;0,0581763
1207,2203;0,0588148
1208,1846;0,0594577
1209,1488;0,0601262
1210,1130;0,0608404
1211,0773;0,0616147
1212,0415;0,0624555
1213,0057;0,063361
1213,9700;0,0643231
1214,9342;0,065329
1215,8984;0,0663627
1216,8627;0,0674056
1217,8269;0,0684377
1218,7911;0,0694401
1219,7554;0,0703989
1220,7196;0,0713071
1221,6838;0,072164
1222,6481;0,0729718
1223,6123;0,0737308
1224,5765;0,074438
1225,5408;0,0750886
1226,5050;0,0756796
1227,4692;0,0762126
1228,4335;0,0766937
1229,3977;0,07713
1230,3619;0,0775253
1231,3262;0,0778782
1232,2904;0,0781824
1233,2546;0,0784305
1234,2189;0,0786177
1235,1831;0,0787454
1236,1473;0,0788218
1237,1116;0,0788598
1238,0758;0,0788734
1239,0400;0,0788714
1240,0043;0,0788548
1240,9685;0,0788158
1241,9327;0,0787413
1242,8970;0,0786188
1243,8612;0,0784414
1244,8254;0,0782097
1245,7897;0,0779306
1246,7539;0,0776142
1247,7181;0,0772706
1248,6824;0,0769078
1249,6466;0,0765319
1250,6108;0,076147
1251,5751;0,0757568
1252,5393;0,0753649
1253,5035;0,0749753
1254,4678;0,0745909
1255,4320;0,0742125
1256,3962;0,0738367
1257,3605;0,073456
1258,3247;0,0730599
1259,2889;0,0726384
1260,2532;0,0721835
1261,2174;0,0716903
1262,1816;0,0711556
1263,1459;0,0705771
1264,1101;0,0699534
1265,0743;0,0692854
1266,0386;0,0685769
1267,0028;0,0678337
1267,9670;0,0670623
1268,9313;0,0662678
1269,8955;0,0654536
1270,8597;0,0646227
1271,8240;0,0637791
1272,7882;0,0629281
1273,7524;0,0620766
1274,7167;0,0612333
1275,6809;0,0604082
1276,6451;0,0596113
1277,6094;0,0588496
1278,5736;0,0581239
1279,5378;0,0574275
1280,5021;0,0567492
1281,4663;0,0560791
1282,4305;0,0554149
1283,3948;0,054764
1284,3590;0,0541402
1285,3232;0,0535591
1286,2875;0,0530328
1287,2517;0,0525684
1288,2159;0,0521688
1289,1802;0,0518347
1290,1444;0,0515657
1291,1086;0,0513607
1292,0729;0,0512172
1293,0371;0,051132
1294,0013;0,0511024
1294,9656;0,0511271
1295,9298;0,0512074
1296,8940;0,0513464
1297,8583;0,0515479
1298,8225;0,0518139
1299,7867;0,0521435
1300,7510;0,0525318
1301,7152;0,0529714
1302,6794;0,0534554
1303,6437;0,05398
1304,6079;0,0545436
1305,5721;0,0551451
1306,5364;0,0557792
1307,5006;0,0564359
1308,4648;0,0571016
1309,4291;0,0577639
1310,3933;0,0584134
1311,3575;0,0590419
1312,3218;0,059639
1313,2860;0,0601884
1314,2502;0,0606683
1315,2145;0,0610555
1316,1787;0,0613319
1317,1429;0,0614898
1318,1072;0,0615365
1319,0714;0,0614946
1320,0356;0,0613956
1320,9999;0,0612692
1321,9641;0,0611349
1322,9283;0,0610004
1323,8926;0,0608669
1324,8568;0,0607353
1325,8210;0,0606092
1326,7853;0,0604932
1327,7495;0,060388
1328,7137;0,0602868
1329,6780;0,0601754
1330,6422;0,0600373
1331,6064;0,0598594
1332,5707;0,0596359
1333,5349;0,059366
1334,4991;0,0590467
1335,4634;0,0586675
1336,4276;0,0582108
1337,3918;0,0576652
1338,3561;0,0570452
1339,3203;0,0564013
1340,2845;0,0558016
1341,2488;0,0552951
1342,2130;0,0548924
1343,1772;0,0545752
1344,1415;0,0543179
1345,1057;0,0541033
1346,0699;0,0539288
1347,0342;0,0538056
1347,9984;0,0537533
1348,9626;0,0537905
1349,9269;0,0539254
1350,8911;0,0541506
1351,8553;0,054446
1352,8196;0,0547887
1353,7838;0,0551641
1354,7480;0,0555711
1355,7123;0,0560171
1356,6765;0,056507
1357,6407;0,057035
1358,6050;0,0575854
