TITLE;
DATA TYPE;INFRARED SPECTRUM
ORIGIN;JASCO
OWNER;
DATE;25/03/26
TIME;19:12:12
SPECTROMETER/DATA SYSTEM;
LOCALE;9226
RESOLUTION;
DELTAX;0,964233
XUNITS;1/CM
YUNITS;ABSORBANCE
FIRSTX;  399,1927
LASTX; 4000,6047
NPOINTS;    3736
FIRSTY;     0,22539
MAXY;     0,26827
MINY;    -0,00085
XYDATA
399,1927;0,225387
400,1569;0,223618
401,1211;0,222545
402,0854;0,222092
403,0496;0,222065
404,0138;0,222288
404,9781;0,222615
405,9423;0,22291
406,9065;0,223057
407,8708;0,222996
408,8350;0,222753
409,7992;0,222439
410,7635;0,222195
411,7277;0,222114
412,6919;0,222182
413,6562;0,222289
414,6204;0,222306
415,5846;0,222172
416,5489;0,221984
417,5131;0,222058
418,4773;0,222815
419,4416;0,224323
420,4058;0,226031
421,3700;0,227258
422,3343;0,227697
423,2985;0,227409
424,2627;0,226667
425,2270;0,22586
426,1912;0,225365
427,1554;0,225392
428,1197;0,225911
429,0839;0,226698
430,0481;0,227463
431,0124;0,227973
431,9766;0,228117
432,9408;0,227923
433,9051;0,227504
434,8693;0,227001
435,8335;0,226531
436,7978;0,226157
437,7620;0,225891
438,7262;0,225699
439,6905;0,225517
440,6547;0,225273
441,6189;0,224923
442,5832;0,224485
443,5474;0,22406
444,5116;0,223776
445,4759;0,223704
446,4401;0,223796
447,4043;0,223904
448,3686;0,223861
449,3328;0,223569
450,2970;0,223051
451,2613;0,22244
452,2255;0,221887
453,1897;0,221468
454,1540;0,221147
455,1182;0,220825
456,0824;0,220425
457,0467;0,219967
458,0109;0,21957
458,9751;0,219345
459,9394;0,21929
460,9036;0,219301
461,8678;0,219273
462,8321;0,219179
463,7963;0,219075
464,7605;0,219061
465,7248;0,219203
466,6890;0,219484
467,6532;0,219812
468,6175;0,220074
469,5817;0,220204
470,5459;0,220205
471,5102;0,220141
472,4744;0,220083
473,4386;0,220065
474,4029;0,220082
475,3671;0,220123
476,3313;0,220216
477,2956;0,220417
478,2598;0,220766
479,2240;0,221229
480,1883;0,221677
481,1525;0,221927
482,1167;0,221833
483,0810;0,221377
484,0452;0,220708
485,0094;0,220068
485,9737;0,21966
486,9379;0,219545
487,9021;0,219656
488,8664;0,21988
489,8306;0,220148
490,7948;0,220453
491,7591;0,22082
492,7233;0,221242
493,6875;0,221641
494,6518;0,221903
495,6160;0,221939
496,5802;0,22174
497,5445;0,221377
498,5087;0,220966
499,4729;0,220621
500,4372;0,220419
501,4014;0,220392
502,3656;0,22054
503,3299;0,220847
504,2941;0,221289
505,2583;0,221835
506,2226;0,222434
507,1868;0,223018
508,1510;0,22352
509,1153;0,223899
510,0795;0,224163
511,0437;0,224355
512,0080;0,224529
512,9722;0,224734
513,9365;0,225003
514,9007;0,225356
515,8649;0,225799
516,8292;0,226306
517,7934;0,226799
518,7576;0,227169
519,7219;0,227323
520,6861;0,227238
521,6503;0,226963
522,6146;0,226584
523,5788;0,226186
524,5430;0,225828
525,5073;0,225532
526,4715;0,22529
527,4357;0,225078
528,4000;0,224871
529,3642;0,224642
530,3284;0,224352
531,2927;0,223959
532,2569;0,223436
533,2211;0,222803
534,1854;0,222132
535,1496;0,221518
536,1138;0,22103
537,0781;0,220677
538,0423;0,220413
539,0065;0,220181
539,9708;0,219962
540,9350;0,219785
541,8992;0,219698
542,8635;0,219728
543,8277;0,219852
544,7919;0,220011
545,7562;0,220148
546,7204;0,220246
547,6846;0,220334
548,6489;0,22046
549,6131;0,220658
550,5773;0,220941
551,5416;0,221305
552,5058;0,22174
553,4700;0,222228
554,4343;0,222722
555,3985;0,223143
556,3627;0,223388
557,3270;0,223368
558,2912;0,223032
559,2554;0,222375
560,2197;0,221428
561,1839;0,220254
562,1481;0,218942
563,1124;0,217609
564,0766;0,216382
565,0408;0,215365
566,0051;0,214606
566,9693;0,214077
567,9335;0,213695
568,8978;0,213363
569,8620;0,213013
570,8262;0,212623
571,7905;0,212208
572,7547;0,211791
573,7189;0,21139
574,6832;0,211015
575,6474;0,210668
576,6116;0,210345
577,5759;0,210028
578,5401;0,209688
579,5043;0,209291
580,4686;0,208811
581,4328;0,208246
582,3970;0,207621
583,3613;0,206988
584,3255;0,206402
585,2897;0,205912
586,2540;0,205546
587,2182;0,205303
588,1824;0,205161
589,1467;0,205084
590,1109;0,205034
591,0751;0,204979
592,0394;0,204901
593,0036;0,204789
593,9678;0,20463
594,9321;0,204409
595,8963;0,204108
596,8605;0,203721
597,8248;0,203263
598,7890;0,20277
599,7532;0,202277
600,7175;0,20181
601,6817;0,201365
602,6459;0,20092
603,6102;0,200453
604,5744;0,199952
605,5386;0,199416
606,5029;0,198842
607,4671;0,19822
608,4313;0,19753
609,3956;0,19676
610,3598;0,195924
611,3240;0,19507
612,2883;0,194262
613,2525;0,193548
614,2167;0,192931
615,1810;0,192351
616,1452;0,191703
617,1094;0,190882
618,0737;0,189835
619,0379;0,188589
620,0021;0,18723
620,9664;0,185851
621,9306;0,184517
622,8948;0,183255
623,8591;0,182074
624,8233;0,180976
625,7875;0,179989
626,7518;0,17913
627,7160;0,178401
628,6802;0,177777
629,6445;0,177209
630,6087;0,17664
631,5729;0,176022
632,5372;0,175332
633,5014;0,174576
634,4656;0,173793
635,4299;0,173034
636,3941;0,17235
637,3583;0,171772
638,3226;0,171305
639,2868;0,170923
640,2510;0,170586
641,2153;0,170256
642,1795;0,169912
643,1437;0,16956
644,1080;0,169224
645,0722;0,168926
646,0364;0,168662
647,0007;0,168402
647,9649;0,168102
648,9291;0,167736
649,8934;0,167328
650,8576;0,166943
651,8218;0,166654
652,7861;0,166509
653,7503;0,166506
654,7145;0,16661
655,6788;0,166773
656,6430;0,166953
657,6072;0,16712
658,5715;0,167231
659,5357;0,167232
660,4999;0,16708
661,4642;0,166786
662,4284;0,166425
663,3926;0,166097
664,3569;0,16588
665,3211;0,165802
666,2853;0,165801
667,2496;0,165612
668,2138;0,164788
669,1780;0,1632
670,1423;0,161319
671,1065;0,159575
672,0707;0,157997
673,0350;0,156441
673,9992;0,154804
674,9634;0,153087
675,9277;0,15137
676,8919;0,149748
677,8561;0,14827
678,8204;0,146936
679,7846;0,145738
680,7488;0,144683
681,7131;0,143777
682,6773;0,142998
683,6415;0,142291
684,6058;0,141599
685,5700;0,140896
686,5342;0,140192
687,4985;0,139517
688,4627;0,138896
689,4269;0,138336
690,3912;0,137835
691,3554;0,137393
692,3196;0,137009
693,2839;0,136675
694,2481;0,136367
695,2123;0,13605
696,1766;0,135695
697,1408;0,135294
698,1050;0,134858
699,0693;0,134411
700,0335;0,133972
700,9977;0,133541
701,9620;0,133099
702,9262;0,132619
703,8904;0,132078
704,8547;0,131477
705,8189;0,130835
706,7831;0,130184
707,7474;0,129552
708,7116;0,128945
709,6758;0,128346
710,6401;0,12772
711,6043;0,127037
712,5685;0,12629
713,5328;0,1255
714,4970;0,124713
715,4612;0,123853
716,4255;0,123186
717,3897;0,122546
718,3539;0,121853
719,3182;0,121028
720,2824;0,120029
721,2466;0,11889
722,2109;0,117697
723,1751;0,116546
724,1393;0,115497
725,1036;0,114561
726,0678;0,113711
727,0320;0,112908
727,9963;0,112127
728,9605;0,11136
729,9247;0,110613
730,8890;0,109894
731,8532;0,109202
732,8174;0,10853
733,7817;0,107871
734,7459;0,10723
735,7101;0,106621
736,6744;0,10607
737,6386;0,105589
738,6028;0,105177
739,5671;0,104806
740,5313;0,104439
741,4955;0,104043
742,4598;0,103605
743,4240;0,10314
744,3882;0,102677
745,3525;0,102242
746,3167;0,101843
747,2809;0,101469
748,2452;0,101095
749,2094;0,100703
750,1736;0,100285
751,1379;0,0998522
752,1021;0,0994204
753,0663;0,0990049
754,0306;0,098611
754,9948;0,0982327
755,9590;0,0978559
756,9233;0,0974655
757,8875;0,0970521
758,8517;0,0966172
759,8160;0,0961743
760,7802;0,0957422
761,7444;0,0953357
762,7087;0,0949553
763,6729;0,0945843
764,6371;0,0941952
765,6014;0,0937633
766,5656;0,0932789
767,5298;0,0927521
768,4941;0,0922068
769,4583;0,0916685
770,4225;0,0911542
771,3868;0,0906683
772,3510;0,0902059
773,3152;0,0897581
774,2795;0,0893165
775,2437;0,0888758
776,2079;0,0884337
777,1722;0,08799
778,1364;0,087546
779,1006;0,0871022
780,0649;0,0866574
781,0291;0,0862088
781,9933;0,0857536
782,9576;0,0852917
783,9218;0,0848267
784,8860;0,084364
785,8503;0,0839088
786,8145;0,0834647
787,7787;0,0830354
788,7430;0,0826269
789,7072;0,0822491
790,6714;0,0819127
791,6357;0,0816248
792,5999;0,0813835
793,5641;0,0811763
794,5284;0,0809827
795,4926;0,0807813
796,4568;0,0805567
797,4211;0,080305
798,3853;0,080033
799,3495;0,0797529
800,3138;0,0794749
801,2780;0,0792026
802,2422;0,0789339
803,2065;0,078667
804,1707;0,078405
805,1349;0,0781563
806,0992;0,0779285
807,0634;0,0777227
808,0276;0,0775318
808,9919;0,0773459
809,9561;0,0771604
810,9203;0,0769799
811,8846;0,0768134
812,8488;0,0766653
813,8130;0,0765293
814,7773;0,0763907
815,7415;0,0762378
816,7057;0,0760727
817,6700;0,075914
818,6342;0,0757879
819,5984;0,0757124
820,5627;0,0756872
821,5269;0,0756937
822,4911;0,0757064
823,4554;0,0757078
824,4196;0,0756958
825,3839;0,0756812
826,3481;0,0756772
827,3123;0,0756876
828,2766;0,0757032
829,2408;0,0757046
830,2050;0,0756711
831,1693;0,0755893
832,1335;0,0754573
833,0977;0,0752848
834,0620;0,0750892
835,0262;0,0748901
835,9904;0,0747038
836,9547;0,0745384
837,9189;0,0743922
838,8831;0,0742555
839,8474;0,0741162
840,8116;0,0739662
841,7758;0,0738055
842,7401;0,0736412
843,7043;0,0734823
844,6685;0,0733338
845,6328;0,0731941
846,5970;0,0730576
847,5612;0,0729204
848,5255;0,0727864
849,4897;0,0726676
850,4539;0,0725791
851,4182;0,0725318
852,3824;0,0725251
853,3466;0,0725463
854,3109;0,0725759
855,2751;0,0725952
856,2393;0,0725934
857,2036;0,0725687
858,1678;0,0725251
859,1320;0,0724683
860,0963;0,0724029
861,0605;0,0723341
862,0247;0,07227
862,9890;0,0722223
863,9532;0,0722027
864,9174;0,0722166
865,8817;0,072259
866,8459;0,072316
867,8101;0,0723714
868,7744;0,0724152
869,7386;0,0724485
870,7028;0,0724822
871,6671;0,0725293
872,6313;0,072598
873,5955;0,0726867
874,5598;0,0727859
875,5240;0,0728846
876,4882;0,0729778
877,4525;0,0730719
878,4167;0,0731856
879,3809;0,0733464
880,3452;0,0735831
881,3094;0,0739182
882,2736;0,0743628
883,2379;0,0749154
884,2021;0,0755667
885,1663;0,0763057
886,1306;0,0771245
887,0948;0,0780195
888,0590;0,0789884
889,0233;0,0800244
889,9875;0,0811115
890,9517;0,0822217
891,9160;0,0833164
892,8802;0,0843486
893,8444;0,0852685
894,8087;0,0860308
895,7729;0,0866022
896,7371;0,086969
897,7014;0,0871396
898,6656;0,0871398
899,6298;0,0870029
900,5941;0,0867583
901,5583;0,0864255
902,5225;0,0860158
903,4868;0,0855419
904,4510;0,0850275
905,4152;0,0845112
906,3795;0,0840412
907,3437;0,083663
908,3079;0,0834055
909,2722;0,0832745
910,2364;0,0832549
911,2007;0,0833223
912,1649;0,0834569
913,1292;0,083654
914,0934;0,0839249
915,0576;0,0842884
916,0219;0,0847561
916,9861;0,0853205
917,9503;0,0859512
918,9146;0,0866039
919,8788;0,0872365
920,8430;0,0878235
921,8073;0,0883614
922,7715;0,0888613
923,7357;0,0893349
924,7000;0,0897819
925,6642;0,0901884
926,6284;0,090535
927,5927;0,0908092
928,5569;0,0910132
929,5211;0,0911637
930,4854;0,0912848
931,4496;0,0913995
932,4138;0,0915257
933,3781;0,0916758
934,3423;0,0918586
935,3065;0,092081
936,2708;0,0923479
937,2350;0,0926622
938,1992;0,0930258
939,1635;0,0934403
940,1277;0,0939076
941,0919;0,0944302
942,0562;0,0950123
943,0204;0,0956617
943,9846;0,0963913
944,9489;0,0972182
945,9131;0,0981582
946,8773;0,0992191
947,8416;0,100397
948,8058;0,101681
949,7700;0,103058
950,7343;0,104525
951,6985;0,106088
952,6627;0,107754
953,6270;0,109527
954,5912;0,111405
955,5554;0,113376
956,5197;0,115432
957,4839;0,117567
958,4481;0,119778
959,4124;0,122055
960,3766;0,124386
961,3408;0,126752
962,3051;0,129141
963,2693;0,131548
964,2335;0,133975
965,1978;0,136433
966,1620;0,138931
967,1262;0,141483
968,0905;0,144107
969,0547;0,146831
970,0189;0,149689
970,9832;0,152716
971,9474;0,155943
972,9116;0,15939
973,8759;0,163072
974,8401;0,166994
975,8043;0,171158
976,7686;0,175552
977,7328;0,180148
978,6970;0,184894
979,6613;0,189709
980,6255;0,194484
981,5897;0,1991
982,5540;0,203438
983,5182;0,207407
984,4824;0,210958
985,4467;0,214091
986,4109;0,216842
987,3751;0,219266
988,3394;0,221417
989,3036;0,223333
990,2678;0,22503
991,2321;0,226511
992,1963;0,227779
993,1605;0,228843
994,1248;0,229726
995,0890;0,230455
996,0532;0,23106
997,0175;0,231564
997,9817;0,231983
998,9459;0,232333
999,9102;0,232639
1000,8744;0,232945
1001,8386;0,233312
1002,8029;0,23381
1003,7671;0,234505
1004,7313;0,235441
1005,6956;0,236635
1006,6598;0,238079
1007,6240;0,239752
1008,5883;0,241629
1009,5525;0,243684
1010,5167;0,24589
1011,4810;0,248209
1012,4452;0,250591
1013,4094;0,25297
1014,3737;0,255271
1015,3379;0,257428
1016,3021;0,259386
1017,2664;0,261115
1018,2306;0,262607
1019,1948;0,263869
1020,1591;0,264922
1021,1233;0,26579
1022,0875;0,266502
1023,0518;0,267081
1024,0160;0,267547
1024,9802;0,267905
1025,9445;0,268151
1026,9087;0,26827
1027,8729;0,268248
1028,8372;0,268067
1029,8014;0,267707
1030,7656;0,267134
1031,7299;0,266297
1032,6941;0,265143
1033,6583;0,263635
1034,6226;0,261783
1035,5868;0,259658
1036,5510;0,257383
1037,5153;0,255117
1038,4795;0,253011
1039,4437;0,251178
1040,4080;0,249677
1041,3722;0,248506
1042,3364;0,247612
1043,3007;0,246907
1044,2649;0,246293
1045,2291;0,245679
1046,1934;0,244997
1047,1576;0,244207
1048,1218;0,243288
1049,0861;0,242226
1050,0503;0,241006
1051,0145;0,239604
1051,9788;0,237998
1052,9430;0,236175
1053,9072;0,234134
1054,8715;0,231883
1055,8357;0,229422
1056,7999;0,226738
1057,7642;0,223808
1058,7284;0,220608
1059,6926;0,217138
1060,6569;0,213449
1061,6211;0,209641
1062,5853;0,205854
1063,5496;0,202231
1064,5138;0,198885
1065,4780;0,195872
1066,4423;0,193189
1067,4065;0,190793
1068,3707;0,188627
1069,3350;0,186635
1070,2992;0,184775
1071,2634;0,183
1072,2277;0,181257
1073,1919;0,179477
1074,1561;0,177596
1075,1204;0,175564
1076,0846;0,173363
1077,0488;0,171012
1078,0131;0,168557
1078,9773;0,166065
1079,9415;0,163604
1080,9058;0,16124
1081,8700;0,159024
1082,8342;0,156987
1083,7985;0,155141
1084,7627;0,153485
1085,7269;0,152009
1086,6912;0,150703
1087,6554;0,149559
1088,6196;0,148572
1089,5839;0,147734
1090,5481;0,147041
1091,5123;0,146488
1092,4766;0,146076
1093,4408;0,145807
1094,4050;0,14568
1095,3693;0,145681
1096,3335;0,145787
1097,2977;0,145961
1098,2620;0,146164
1099,2262;0,14636
1100,1904;0,146518
1101,1547;0,146609
1102,1189;0,146611
1103,0831;0,146507
1104,0474;0,146286
1105,0116;0,145948
1105,9758;0,145504
1106,9401;0,144967
1107,9043;0,144349
1108,8685;0,143642
1109,8328;0,142823
1110,7970;0,141853
1111,7612;0,140694
1112,7255;0,13933
1113,6897;0,137781
1114,6539;0,136113
1115,6182;0,134418
1116,5824;0,132794
1117,5466;0,131311
1118,5109;0,129989
1119,4751;0,128796
1120,4393;0,127658
1121,4036;0,126481
1122,3678;0,12518
1123,3320;0,123689
1124,2963;0,121979
1125,2605;0,120054
1126,2247;0,117947
1127,1890;0,115711
1128,1532;0,113403
1129,1174;0,11108
1130,0817;0,108784
1131,0459;0,106546
1132,0101;0,104389
1132,9744;0,102337
1133,9386;0,100422
1134,9028;0,0986876
1135,8671;0,0971826
1136,8313;0,0959531
1137,7955;0,0950298
1138,7598;0,0944198
1139,7240;0,0941045
1140,6882;0,0940448
1141,6525;0,0941901
1142,6167;0,094489
1143,5809;0,0948981
1144,5452;0,0953861
1145,5094;0,0959338
1146,4736;0,0965313
1147,4379;0,0971725
1148,4021;0,0978511
1149,3663;0,098556
1150,3306;0,0992687
1151,2948;0,0999606
1152,2590;0,100593
1153,2233;0,101119
1154,1875;0,101486
1155,1517;0,101639
1156,1160;0,101527
1157,0802;0,101106
1158,0444;0,100338
1159,0087;0,0991936
1159,9729;0,0976477
1160,9371;0,0956848
1161,9014;0,0933038
1162,8656;0,090526
1163,8298;0,0874019
1164,7941;0,0840131
1165,7583;0,0804676
1166,7225;0,0768878
1167,6868;0,0733941
1168,6510;0,0700882
1169,6152;0,0670403
1170,5795;0,0642854
1171,5437;0,0618278
1172,5079;0,0596533
1173,4722;0,0577403
1174,4364;0,0560682
1175,4006;0,0546174
1176,3649;0,0533678
1177,3291;0,0522962
1178,2933;0,0513789
1179,2576;0,0505953
1180,2218;0,0499317
1181,1860;0,0493797
1182,1503;0,0489331
1183,1145;0,0485834
1184,0787;0,0483207
1185,0430;0,0481372
1186,0072;0,0480329
1186,9714;0,0480171
1187,9357;0,0481045
1188,8999;0,0483085
1189,8641;0,0486337
1190,8284;0,0490739
1191,7926;0,0496148
1192,7568;0,0502393
1193,7211;0,0509331
1194,6853;0,051686
1195,6495;0,0524898
1196,6138;0,0533347
1197,5780;0,0542059
1198,5422;0,0550843
1199,5065;0,0558782
1200,4707;0,056723
1201,4349;0,0575299
1202,3992;0,0582959
1203,3634;0,0590218
1204,3276;0,0597078
1205,2919;0,0603533
1206,2561;0,0609596
1207,2203;0,0615348
1208,1846;0,0620974
1209,1488;0,0626759
1210,1130;0,0633032
1211,0773;0,0640085
1212,0415;0,06481
1213,0057;0,0657114
1213,9700;0,0667034
1214,9342;0,0677673
1215,8984;0,0688808
1216,8627;0,0700212
1217,8269;0,071168
1218,7911;0,072305
1219,7554;0,0734206
1220,7196;0,0745066
1221,6838;0,0755571
1222,6481;0,076566
1223,6123;0,0775267
1224,5765;0,0784334
1225,5408;0,0792827
1226,5050;0,0800757
1227,4692;0,0808169
1228,4335;0,0815125
1229,3977;0,0821667
1230,3619;0,0827783
1231,3262;0,0833397
1232,2904;0,0838383
1233,2546;0,0842604
1234,2189;0,084597
1235,1831;0,0848484
1236,1473;0,0850251
1237,1116;0,0851432
1238,0758;0,0852182
1239,0400;0,0852577
1240,0043;0,0852606
1240,9685;0,0852196
1241,9327;0,0851275
1242,8970;0,0849818
1243,8612;0,0847843
1244,8254;0,0845378
1245,7897;0,0842431
1246,7539;0,0838985
1247,7181;0,0835031
1248,6824;0,0830615
1249,6466;0,0825845
1250,6108;0,0820879
1251,5751;0,0815883
1252,5393;0,0810986
1253,5035;0,0806255
1254,4678;0,0801683
1255,4320;0,0797195
1256,3962;0,0792669
1257,3605;0,0787968
1258,3247;0,0782987
1259,2889;0,0777675
1260,2532;0,0772028
1261,2174;0,0766059
1262,1816;0,075976
1263,1459;0,0753093
1264,1101;0,0746013
1265,0743;0,0738506
1266,0386;0,0730595
1267,0028;0,072233
1267,9670;0,0713757
1268,9313;0,0704905
1269,8955;0,069581
1270,8597;0,0686535
1271,8240;0,0677187
1272,7882;0,0667892
1273,7524;0,0658769
1274,7167;0,0649902
1275,6809;0,0641342
1276,6451;0,0633106
1277,6094;0,0625174
1278,5736;0,0617491
1279,5378;0,0609977
1280,5021;0,0602564
1281,4663;0,0595244
1282,4305;0,0588082
1283,3948;0,0581199
1284,3590;0,0574729
1285,3232;0,0568788
1286,2875;0,0563473
1287,2517;0,0558874
1288,2159;0,0555077
1289,1802;0,0552142
1290,1444;0,0550072
1291,1086;0,0548803
1292,0729;0,0548229
1293,0371;0,0548255
1294,0013;0,0548839
1294,9656;0,0550007
1295,9298;0,0551826
1296,8940;0,0554366
1297,8583;0,0557662
1298,8225;0,0561696
1299,7867;0,0566395
1300,7510;0,0571648
1301,7152;0,057735
1302,6794;0,0583429
1303,6437;0,0589874
1304,6079;0,0596728
1305,5721;0,0604036
1306,5364;0,0611779
1307,5006;0,0619854
1308,4648;0,0628104
1309,4291;0,0636386
1310,3933;0,0644604
1311,3575;0,0652691
1312,3218;0,0660544
1313,2860;0,0667962
1314,2502;0,0674642
1315,2145;0,0680228
1316,1787;0,0684387
1317,1429;0,0686906
1318,1072;0,0687772
1319,0714;0,0687231
1320,0356;0,0685737
1320,9999;0,0683804
1321,9641;0,0681827
1322,9283;0,0680003
1323,8926;0,0678359
1324,8568;0,067685
1325,8210;0,0675436
1326,7853;0,0674121
1327,7495;0,0672913
1328,7137;0,0671784
1329,6780;0,0670624
1330,6422;0,0669263
1331,6064;0,0667531
1332,5707;0,0665312
1333,5349;0,0662557
1334,4991;0,0659225
1335,4634;0,0655202
1336,4276;0,0650287
1337,3918;0,0644296
1338,3561;0,0637291
1339,3203;0,0629788
1340,2845;0,0622634
1341,2488;0,0616545
1342,2130;0,0611745
1343,1772;0,0608028
1344,1415;0,0605056
1345,1057;0,0602616
1346,0699;0,0600698
1347,0342;0,0599455
1347,9984;0,0599088
1348,9626;0,0599741
1349,9269;0,060143
1350,8911;0,0604043
1351,8553;0,0607394
1352,8196;0,0611307
1353,7838;0,061569
1354,7480;0,0620547
1355,7123;0,0625911
1356,6765;0,0631743
1357,6407;0,0637889
1358,6050;0,064412
1359,5692;0,0650216
1360,5334;0,0656011
1361,4977;0,0661418
