TITLE;
DATA TYPE;INFRARED SPECTRUM
ORIGIN;JASCO
OWNER;
DATE;25/03/10
TIME;19:46:57
SPECTROMETER/DATA SYSTEM;
LOCALE;9226
RESOLUTION;
DELTAX;0,964233
XUNITS;1/CM
YUNITS;ABSORBANCE
FIRSTX;  399,1927
LASTX; 4000,6047
NPOINTS;    3736
FIRSTY;     0,18302
MAXY;     0,26808
MINY;     0,01497
XYDATA
399,1927;0,183016
400,1569;0,180546
401,1211;0,178419
402,0854;0,177061
403,0496;0,176569
404,0138;0,176852
404,9781;0,177628
405,9423;0,178449
406,9065;0,178849
407,8708;0,178589
408,8350;0,177813
409,7992;0,176984
410,7635;0,176638
411,7277;0,177074
412,6919;0,178179
413,6562;0,179536
414,6204;0,180696
415,5846;0,18139
416,5489;0,181608
417,5131;0,181663
418,4773;0,182106
419,4416;0,183249
420,4058;0,184708
421,3700;0,185823
422,3343;0,186272
423,2985;0,186129
424,2627;0,185704
425,2270;0,185391
426,1912;0,185503
427,1554;0,186125
428,1197;0,187091
429,0839;0,188112
430,0481;0,188931
431,0124;0,189435
431,9766;0,189683
432,9408;0,189831
433,9051;0,190004
434,8693;0,190192
435,8335;0,190244
436,7978;0,18997
437,7620;0,189277
438,7262;0,188246
439,6905;0,187098
440,6547;0,186108
441,6189;0,1855
442,5832;0,185341
443,5474;0,185498
444,5116;0,18572
445,4759;0,185802
446,4401;0,185684
447,4043;0,185415
448,3686;0,185056
449,3328;0,184611
450,2970;0,184059
451,2613;0,183417
452,2255;0,182796
453,1897;0,182361
454,1540;0,182243
455,1182;0,182444
456,0824;0,182805
457,0467;0,183069
458,0109;0,183034
458,9751;0,182697
459,9394;0,182233
460,9036;0,181813
461,8678;0,181482
462,8321;0,181184
463,7963;0,180853
464,7605;0,180496
465,7248;0,180212
466,6890;0,180122
467,6532;0,180281
468,6175;0,180627
469,5817;0,18101
470,5459;0,181265
471,5102;0,181309
472,4744;0,181181
473,4386;0,181008
474,4029;0,180904
475,3671;0,180899
476,3313;0,180956
477,2956;0,181028
478,2598;0,181096
479,2240;0,181177
480,1883;0,181295
481,1525;0,181467
482,1167;0,181695
483,0810;0,181977
484,0452;0,182325
485,0094;0,182756
485,9737;0,183275
486,9379;0,183856
487,9021;0,184433
488,8664;0,184925
489,8306;0,185256
490,7948;0,1854
491,7591;0,185405
492,7233;0,185392
493,6875;0,185504
494,6518;0,185833
495,6160;0,186376
496,5802;0,187046
497,5445;0,18772
498,5087;0,188288
499,4729;0,188696
500,4372;0,18895
501,4014;0,189105
502,3656;0,189219
503,3299;0,189324
504,2941;0,18942
505,2583;0,189507
506,2226;0,189619
507,1868;0,189827
508,1510;0,190205
509,1153;0,190775
510,0795;0,191477
511,0437;0,192192
512,0080;0,192805
512,9722;0,193261
513,9365;0,193589
514,9007;0,193877
515,8649;0,194219
516,8292;0,194657
517,7934;0,195155
518,7576;0,195626
519,7219;0,196002
520,6861;0,196278
521,6503;0,196494
522,6146;0,196684
523,5788;0,196841
524,5430;0,196916
525,5073;0,196856
526,4715;0,196654
527,4357;0,196371
528,4000;0,19611
529,3642;0,195952
530,3284;0,195921
531,2927;0,195976
532,2569;0,196033
533,2211;0,196004
534,1854;0,195835
535,1496;0,195533
536,1138;0,195161
537,0781;0,194804
538,0423;0,194526
539,0065;0,19434
539,9708;0,194211
540,9350;0,194095
541,8992;0,193972
542,8635;0,193878
543,8277;0,193884
544,7919;0,194063
545,7562;0,19444
546,7204;0,19497
547,6846;0,195555
548,6489;0,196096
549,6131;0,196542
550,5773;0,196909
551,5416;0,197257
552,5058;0,197653
553,4700;0,19813
554,4343;0,198672
555,3985;0,199222
556,3627;0,199691
557,3270;0,199987
558,2912;0,200024
559,2554;0,199739
560,2197;0,19911
561,1839;0,198172
562,1481;0,197024
563,1124;0,195807
564,0766;0,194666
565,0408;0,193699
566,0051;0,192936
566,9693;0,192347
567,9335;0,191864
568,8978;0,191429
569,8620;0,191009
570,8262;0,190608
571,7905;0,190246
572,7547;0,189944
573,7189;0,189715
574,6832;0,18956
575,6474;0,189464
576,6116;0,189397
577,5759;0,189323
578,5401;0,189212
579,5043;0,189054
580,4686;0,188863
581,4328;0,188667
582,3970;0,188496
583,3613;0,188366
584,3255;0,188271
585,2897;0,188198
586,2540;0,188141
587,2182;0,188108
588,1824;0,188121
589,1467;0,188195
590,1109;0,188315
591,0751;0,188433
592,0394;0,188479
593,0036;0,18839
593,9678;0,188145
594,9321;0,187762
595,8963;0,187291
596,8605;0,186777
597,8248;0,186256
598,7890;0,185743
599,7532;0,185245
600,7175;0,184762
601,6817;0,184297
602,6459;0,183853
603,6102;0,183438
604,5744;0,183053
605,5386;0,182698
606,5029;0,18236
607,4671;0,182014
608,4313;0,181627
609,3956;0,18117
610,3598;0,180629
611,3240;0,180018
612,2883;0,179367
613,2525;0,178711
614,2167;0,178068
615,1810;0,177423
616,1452;0,176736
617,1094;0,175953
618,0737;0,175031
619,0379;0,173961
620,0021;0,172769
620,9664;0,1715
621,9306;0,170206
622,8948;0,168938
623,8591;0,167744
624,8233;0,166658
625,7875;0,165707
626,7518;0,164891
627,7160;0,164193
628,6802;0,163579
629,6445;0,163008
630,6087;0,162435
631,5729;0,16182
632,5372;0,161148
633,5014;0,160439
634,4656;0,159748
635,4299;0,159139
636,3941;0,158653
637,3583;0,158283
638,3226;0,157981
639,2868;0,157679
640,2510;0,157326
641,2153;0,156911
642,1795;0,156464
643,1437;0,156038
644,1080;0,155676
645,0722;0,155396
646,0364;0,155175
647,0007;0,154969
647,9649;0,154732
648,9291;0,154446
649,8934;0,154135
650,8576;0,153849
651,8218;0,153637
652,7861;0,153522
653,7503;0,153496
654,7145;0,153537
655,6788;0,15363
656,6430;0,153772
657,6072;0,153957
658,5715;0,154149
659,5357;0,154267
660,4999;0,154225
661,4642;0,153988
662,4284;0,153612
663,3926;0,153213
664,3569;0,152903
665,3211;0,152753
666,2853;0,152751
667,2496;0,152699
668,2138;0,152185
669,1780;0,150989
670,1423;0,149432
671,1065;0,147898
672,0707;0,146454
673,0350;0,144988
673,9992;0,143395
674,9634;0,141655
675,9277;0,139847
676,8919;0,1381
677,8561;0,136508
678,8204;0,135096
679,7846;0,133831
680,7488;0,132677
681,7131;0,131613
682,6773;0,130636
683,6415;0,12975
684,6058;0,128956
685,5700;0,128253
686,5342;0,127632
687,4985;0,127071
688,4627;0,126542
689,4269;0,126021
690,3912;0,125498
691,3554;0,124977
692,3196;0,124471
693,2839;0,123985
694,2481;0,123517
695,2123;0,123059
696,1766;0,122605
697,1408;0,12215
698,1050;0,12169
699,0693;0,121219
700,0335;0,120732
700,9977;0,120224
701,9620;0,119694
702,9262;0,11915
703,8904;0,118601
704,8547;0,118059
705,8189;0,117531
706,7831;0,117018
707,7474;0,116515
708,7116;0,116009
709,6758;0,115489
710,6401;0,114941
711,6043;0,114358
712,5685;0,113743
713,5328;0,113112
714,4970;0,112495
715,4612;0,111846
716,4255;0,111337
717,3897;0,11086
718,3539;0,110349
719,3182;0,109734
720,2824;0,108971
721,2466;0,108081
722,2109;0,107135
723,1751;0,106214
724,1393;0,105363
725,1036;0,104581
726,0678;0,103832
727,0320;0,103076
727,9963;0,102291
728,9605;0,10148
729,9247;0,100664
730,8890;0,0998693
731,8532;0,0991223
732,8174;0,0984467
733,7817;0,0978593
734,7459;0,0973623
735,7101;0,0969355
736,6744;0,0965377
737,6386;0,0961205
738,6028;0,0956494
739,5671;0,0951205
740,5313;0,0945618
741,4955;0,0940175
742,4598;0,0935238
743,4240;0,0930892
744,3882;0,0926921
745,3525;0,0922941
746,3167;0,0918621
747,2809;0,0913848
748,2452;0,090875
749,2094;0,0903593
750,1736;0,0898603
751,1379;0,0893843
752,1021;0,0889198
753,0663;0,0884467
754,0306;0,0879498
754,9948;0,0874296
755,9590;0,0869032
756,9233;0,0863968
757,8875;0,0859326
758,8517;0,085518
759,8160;0,0851426
760,7802;0,084784
761,7444;0,08442
762,7087;0,0840411
763,6729;0,0836549
764,6371;0,0832805
765,6014;0,0829369
766,5656;0,08263
767,5298;0,0823486
768,4941;0,0820692
769,4583;0,0817685
770,4225;0,0814339
771,3868;0,0810686
772,3510;0,0806882
773,3152;0,0803129
774,2795;0,0799593
775,2437;0,0796348
776,2079;0,0793381
777,1722;0,0790605
778,1364;0,0787919
779,1006;0,0785236
780,0649;0,078252
781,0291;0,0779768
781,9933;0,0776989
782,9576;0,0774162
783,9218;0,0771228
784,8860;0,0768117
785,8503;0,0764807
786,8145;0,0761368
787,7787;0,0757972
788,7430;0,0754832
789,7072;0,075213
790,6714;0,0749939
791,6357;0,074821
792,5999;0,0746797
793,5641;0,0745513
794,5284;0,0744185
795,4926;0,074269
796,4568;0,0740979
797,4211;0,0739078
798,3853;0,0737092
799,3495;0,0735174
800,3138;0,073348
801,2780;0,073211
802,2422;0,0731056
803,2065;0,073019
804,1707;0,07293
805,1349;0,0728167
806,0992;0,0726656
807,0634;0,0724777
808,0276;0,0722681
808,9919;0,0720583
809,9561;0,0718667
810,9203;0,0717007
811,8846;0,0715557
812,8488;0,0714208
813,8130;0,0712857
814,7773;0,0711452
815,7415;0,0709986
816,7057;0,0708465
817,6700;0,070689
818,6342;0,0705268
819,5984;0,0703632
820,5627;0,0702031
821,5269;0,0700495
822,4911;0,0698997
823,4554;0,0697456
824,4196;0,0695796
825,3839;0,0694017
826,3481;0,0692228
827,3123;0,0690602
828,2766;0,0689289
829,2408;0,068833
830,2050;0,0687624
831,1693;0,0686967
832,1335;0,0686112
833,0977;0,0684835
834,0620;0,0682982
835,0262;0,068051
835,9904;0,0677512
836,9547;0,0674211
837,9189;0,0670904
838,8831;0,0667858
839,8474;0,0665205
840,8116;0,0662908
841,7758;0,0660812
842,7401;0,0658766
843,7043;0,0656723
844,6685;0,0654761
845,6328;0,065302
846,5970;0,06516
847,5612;0,0650501
848,5255;0,064964
849,4897;0,064891
850,4539;0,0648237
851,4182;0,0647579
852,3824;0,0646908
853,3466;0,0646184
854,3109;0,0645385
855,2751;0,0644554
856,2393;0,0643814
857,2036;0,0643316
858,1678;0,0643141
859,1320;0,0643235
860,0963;0,0643435
861,0605;0,0643592
862,0247;0,0643704
862,9890;0,0643954
863,9532;0,0644615
864,9174;0,0645875
865,8817;0,064771
866,8459;0,0649886
867,8101;0,0652101
868,7744;0,0654142
869,7386;0,0655978
870,7028;0,0657712
871,6671;0,065946
872,6313;0,066125
873,5955;0,0662995
874,5598;0,0664552
875,5240;0,0665816
876,4882;0,066679
877,4525;0,0667593
878,4167;0,0668431
879,3809;0,0669552
880,3452;0,0671188
881,3094;0,0673516
882,2736;0,0676641
883,2379;0,0680604
884,2021;0,0685408
885,1663;0,0691055
886,1306;0,0697551
887,0948;0,0704891
888,0590;0,0713027
889,0233;0,0721854
889,9875;0,0731212
890,9517;0,0740886
891,9160;0,0750599
892,8802;0,0759986
893,8444;0,076858
894,8087;0,0775858
895,7729;0,0781327
896,7371;0,0784638
897,7014;0,0785654
898,6656;0,0784444
899,6298;0,0781219
900,5941;0,0776256
901,5583;0,0769864
902,5225;0,0762387
903,4868;0,0754221
904,4510;0,0745795
905,4152;0,0737536
906,3795;0,07298
907,3437;0,0722848
908,3079;0,0716842
909,2722;0,0711864
910,2364;0,0707931
911,2007;0,0704997
912,1649;0,0702967
913,1292;0,0701716
914,0934;0,0701136
915,0576;0,0701168
916,0219;0,0701791
916,9861;0,0702978
917,9503;0,070465
918,9146;0,0706653
919,8788;0,0708804
920,8430;0,071095
921,8073;0,0713017
922,7715;0,0715009
923,7357;0,0716971
924,7000;0,0718941
925,6642;0,0720936
926,6284;0,0722957
927,5927;0,072501
928,5569;0,0727107
929,5211;0,0729255
930,4854;0,0731439
931,4496;0,0733629
932,4138;0,0735808
933,3781;0,0738006
934,3423;0,0740316
935,3065;0,0742878
936,2708;0,074585
937,2350;0,0749368
938,1992;0,0753517
939,1635;0,0758318
940,1277;0,0763744
941,0919;0,0769739
942,0562;0,0776252
943,0204;0,078326
943,9846;0,0790777
944,9489;0,0798847
945,9131;0,0807531
946,8773;0,0816894
947,8416;0,0826985
948,8058;0,0837825
949,7700;0,0849386
950,7343;0,0861596
951,6985;0,087437
952,6627;0,088768
953,6270;0,0901598
954,5912;0,09163
955,5554;0,0931975
956,5197;0,0948707
957,4839;0,0966381
958,4481;0,0984706
959,4124;0,100334
960,3766;0,102202
961,3408;0,104071
962,3051;0,105949
963,2693;0,107849
964,2335;0,109779
965,1978;0,111734
966,1620;0,113709
967,1262;0,115704
968,0905;0,117735
969,0547;0,119828
970,0189;0,122015
970,9832;0,12433
971,9474;0,126807
972,9116;0,129481
973,8759;0,132389
974,8401;0,135568
975,8043;0,139042
976,7686;0,142817
977,7328;0,146871
978,6970;0,151151
979,6613;0,155574
980,6255;0,160028
981,5897;0,164391
982,5540;0,168537
983,5182;0,172363
984,4824;0,175796
985,4467;0,178807
986,4109;0,181402
987,3751;0,183622
988,3394;0,185525
989,3036;0,187179
990,2678;0,188645
991,2321;0,189974
992,1963;0,191196
993,1605;0,192326
994,1248;0,193376
995,0890;0,194362
996,0532;0,195312
997,0175;0,196262
997,9817;0,197243
998,9459;0,198271
999,9102;0,199343
1000,8744;0,200452
1001,8386;0,201598
1002,8029;0,202803
1003,7671;0,204105
1004,7313;0,205556
1005,6956;0,207198
1006,6598;0,20906
1007,6240;0,211158
1008,5883;0,213498
1009,5525;0,216083
1010,5167;0,218907
1011,4810;0,221944
1012,4452;0,225141
1013,4094;0,22842
1014,3737;0,231691
1015,3379;0,234877
1016,3021;0,237925
1017,2664;0,240815
1018,2306;0,243548
1019,1948;0,24613
1020,1591;0,248567
1021,1233;0,250868
1022,0875;0,253045
1023,0518;0,255123
1024,0160;0,257132
1024,9802;0,259093
1025,9445;0,261002
1026,9087;0,262825
1027,8729;0,264504
1028,8372;0,265962
1029,8014;0,267111
1030,7656;0,267851
1031,7299;0,268084
1032,6941;0,267722
1033,6583;0,266721
1034,6226;0,265104
1035,5868;0,262976
1036,5510;0,260517
1037,5153;0,257943
1038,4795;0,255468
1039,4437;0,253266
1040,4080;0,25145
1041,3722;0,250065
1042,3364;0,249095
1043,3007;0,24847
1044,2649;0,248077
1045,2291;0,247786
1046,1934;0,247467
1047,1576;0,247017
1048,1218;0,246375
1049,0861;0,245512
1050,0503;0,244426
1051,0145;0,243116
1051,9788;0,241579
1052,9430;0,239808
1053,9072;0,237802
1054,8715;0,235569
1055,8357;0,233116
1056,7999;0,23043
1057,7642;0,227472
1058,7284;0,224182
1059,6926;0,220512
1060,6569;0,216464
1061,6211;0,212118
1062,5853;0,207626
1063,5496;0,203176
1064,5138;0,198943
1065,4780;0,195039
1066,4423;0,191501
1067,4065;0,188302
1068,3707;0,18538
1069,3350;0,182672
1070,2992;0,180126
1071,2634;0,177707
1072,2277;0,175378
1073,1919;0,1731
1074,1561;0,170829
1075,1204;0,16853
1076,0846;0,166189
1077,0488;0,163822
1078,0131;0,16147
1078,9773;0,159189
1079,9415;0,157037
1080,9058;0,155055
1081,8700;0,153269
1082,8342;0,15169
1083,7985;0,150316
1084,7627;0,149144
1085,7269;0,148161
1086,6912;0,14735
1087,6554;0,146683
1088,6196;0,146128
1089,5839;0,145655
1090,5481;0,145247
1091,5123;0,144902
1092,4766;0,144633
1093,4408;0,14446
1094,4050;0,1444
1095,3693;0,144456
1096,3335;0,144615
1097,2977;0,144856
1098,2620;0,145151
1099,2262;0,145472
1100,1904;0,145796
1101,1547;0,146097
1102,1189;0,146347
1103,0831;0,146515
1104,0474;0,14657
1105,0116;0,14649
1105,9758;0,146271
1106,9401;0,14592
1107,9043;0,14545
1108,8685;0,144861
1109,8328;0,14413
1110,7970;0,143214
1111,7612;0,142063
1112,7255;0,140656
1113,6897;0,139017
1114,6539;0,137228
1115,6182;0,135405
1116,5824;0,133664
1117,5466;0,132084
1118,5109;0,130685
1119,4751;0,129428
1120,4393;0,128229
1121,4036;0,126987
1122,3678;0,125605
1123,3320;0,12401
1124,2963;0,122159
1125,2605;0,120051
1126,2247;0,117715
1127,1890;0,115211
1128,1532;0,112611
1129,1174;0,109985
1130,0817;0,107385
1131,0459;0,104844
1132,0101;0,102379
1132,9744;0,100005
1133,9386;0,0977484
1134,9028;0,0956528
1135,8671;0,0937734
1136,8313;0,0921636
1137,7955;0,0908613
1138,7598;0,0898787
1139,7240;0,0892017
1140,6882;0,0887958
1141,6525;0,0886162
1142,6167;0,0886174
1143,5809;0,0887601
1144,5452;0,0890152
1145,5094;0,0893652
1146,4736;0,0898034
1147,4379;0,0903302
1148,4021;0,090948
1149,3663;0,0916553
1150,3306;0,0924419
1151,2948;0,0932873
1152,2590;0,0941607
1153,2233;0,0950242
1154,1875;0,0958341
1155,1517;0,0965429
1156,1160;0,0970982
1157,0802;0,0974419
1158,0444;0,0975097
1159,0087;0,0972321
1159,9729;0,0965397
1160,9371;0,0953724
1161,9014;0,0936931
1162,8656;0,0915013
1163,8298;0,0888431
1164,7941;0,0858111
1165,7583;0,0825341
1166,7225;0,0791567
1167,6868;0,0758172
1168,6510;0,0726274
1169,6152;0,069663
1170,5795;0,0669636
1171,5437;0,0645409
1172,5079;0,0623897
1173,4722;0,0604963
1174,4364;0,0588426
1175,4006;0,0574076
1176,3649;0,056168
1177,3291;0,0551009
1178,2933;0,0541865
1179,2576;0,0534087
1180,2218;0,0527548
1181,1860;0,0522123
1182,1503;0,0517677
1183,1145;0,0514081
1184,0787;0,0511239
1185,0430;0,0509111
1186,0072;0,0507723
1186,9714;0,0507137
1187,9357;0,0507423
1188,8999;0,0508643
1189,8641;0,051084
1190,8284;0,0514041
1191,7926;0,0518256
1192,7568;0,052346
1193,7211;0,0529576
1194,6853;0,0536469
1195,6495;0,0543957
1196,6138;0,0551841
1197,5780;0,055993
1198,5422;0,0568063
1199,5065;0,0575767
1200,4707;0,0583699
1201,4349;0,0591422
1202,3992;0,0598916
1203,3634;0,0606181
1204,3276;0,0613216
1205,2919;0,0620017
1206,2561;0,0626584
1207,2203;0,0632956
1208,1846;0,0639255
1209,1488;0,0645706
1210,1130;0,065261
1211,0773;0,0660266
1212,0415;0,0668872
1213,0057;0,0678462
1213,9700;0,06889
1214,9342;0,0699937
1215,8984;0,0711287
1216,8627;0,0722679
1217,8269;0,0733886
1218,7911;0,0744737
1219,7554;0,075512
1220,7196;0,0764994
1221,6838;0,0774373
1222,6481;0,0783304
1223,6123;0,0791828
1224,5765;0,0799955
1225,5408;0,0807664
1226,5050;0,0814925
1227,4692;0,0821723
1228,4335;0,0828067
1229,3977;0,0833981
1230,3619;0,0839476
1231,3262;0,0844536
1232,2904;0,0849117
1233,2546;0,0853165
1234,2189;0,0856646
1235,1831;0,0859573
1236,1473;0,0862008
1237,1116;0,0864042
1238,0758;0,0865751
1239,0400;0,0867154
1240,0043;0,08682
1240,9685;0,086879
1241,9327;0,0868823
1242,8970;0,086823
1243,8612;0,086699
1244,8254;0,0865107
1245,7897;0,0862595
1246,7539;0,0859479
1247,7181;0,0855816
1248,6824;0,0851706
1249,6466;0,0847285
1250,6108;0,0842691
1251,5751;0,0838032
1252,5393;0,083337
1253,5035;0,082872
1254,4678;0,082406
1255,4320;0,0819331
1256,3962;0,0814437
1257,3605;0,0809269
1258,3247;0,0803744
1259,2889;0,079784
1260,2532;0,0791594
1261,2174;0,0785068
1262,1816;0,0778288
1263,1459;0,0771228
1264,1101;0,0763833
1265,0743;0,0756055
1266,0386;0,0747879
1267,0028;0,0739309
1267,9670;0,073035
1268,9313;0,072101
1269,8955;0,0711337
1270,8597;0,0701444
1271,8240;0,06915
1272,7882;0,0681669
1273,7524;0,0672062
1274,7167;0,0662728
1275,6809;0,0653699
1276,6451;0,0645034
1277,6094;0,0636814
1278,5736;0,0629084
1279,5378;0,0621794
1280,5021;0,0614791
1281,4663;0,0607889
1282,4305;0,0600964
1283,3948;0,0594023
1284,3590;0,0587206
1285,3232;0,0580728
1286,2875;0,0574813
1287,2517;0,0569641
1288,2159;0,0565315
1289,1802;0,0561855
1290,1444;0,0559215
1291,1086;0,0557312
1292,0729;0,055607
1293,0371;0,0555459
1294,0013;0,0555501
1294,9656;0,0556248
1295,9298;0,0557756
1296,8940;0,0560056
1297,8583;0,0563156
1298,8225;0,0567047
1299,7867;0,0571704
1300,7510;0,0577073
1301,7152;0,0583064
1302,6794;0,0589565
1303,6437;0,0596477
1304,6079;0,0603743
1305,5721;0,0611338
1306,5364;0,0619234
1307,5006;0,0627364
1308,4648;0,0635628
1309,4291;0,0643913
1310,3933;0,0652118
1311,3575;0,0660138
1312,3218;0,0667821
1313,2860;0,0674938
1314,2502;0,0681197
1315,2145;0,0686276
1316,1787;0,0689879
1317,1429;0,0691795
1318,1072;0,0691981
1319,0714;0,069063
1320,0356;0,0688162
1320,9999;0,06851
1321,9641;0,0681903
1322,9283;0,0678872
1323,8926;0,0676158
1324,8568;0,067382
1325,8210;0,0671869
1326,7853;0,0670268
1327,7495;0,0668928
1328,7137;0,0667695
1329,6780;0,0666374
1330,6422;0,0664769
1331,6064;0,0662741
1332,5707;0,0660222
1333,5349;0,0657182
1334,4991;0,0653549
1335,4634;0,0649146
1336,4276;0,0643698
1337,3918;0,0637003
1338,3561;0,0629217
1339,3203;0,0621049
1340,2845;0,0613504
1341,2488;0,0607288
1342,2130;0,0602477
1343,1772;0,059872
1344,1415;0,0595615
1345,1057;0,0592956
1346,0699;0,0590787
1347,0342;0,0589317
1347,9984;0,0588784
1348,9626;0,0589321
1349,9269;0,0590894
1350,8911;0,0593327
1351,8553;0,0596399
1352,8196;0,0599951
1353,7838;0,0603964
1354,7480;0,0608538
1355,7123;0,0613765
1356,6765;0,0619597
1357,6407;0,0625808
1358,6050;0,0632079
1359,5692;0,0638122
1360,5334;0,0643762
