TITLE;
DATA TYPE;INFRARED SPECTRUM
ORIGIN;JASCO
OWNER;
DATE;25/03/10
TIME;19:48:50
SPECTROMETER/DATA SYSTEM;
LOCALE;9226
RESOLUTION;
DELTAX;0,964233
XUNITS;1/CM
YUNITS;ABSORBANCE
FIRSTX;  399,1927
LASTX; 4000,6047
NPOINTS;    3736
FIRSTY;     0,19797
MAXY;     0,27357
MINY;     0,01117
XYDATA
399,1927;0,197972
400,1569;0,197916
401,1211;0,196481
402,0854;0,194449
403,0496;0,19261
404,0138;0,191608
404,9781;0,191786
405,9423;0,193003
406,9065;0,194614
407,8708;0,195793
408,8350;0,196023
409,7992;0,195387
410,7635;0,194473
411,7277;0,193946
412,6919;0,194103
413,6562;0,194744
414,6204;0,195418
415,5846;0,195752
416,5489;0,195651
417,5131;0,195385
418,4773;0,195474
419,4416;0,196174
420,4058;0,197093
421,3700;0,197693
422,3343;0,197856
423,2985;0,197835
424,2627;0,19799
425,2270;0,198561
426,1912;0,199531
427,1554;0,200632
428,1197;0,201517
429,0839;0,20195
430,0481;0,201907
431,0124;0,201565
431,9766;0,201196
432,9408;0,201036
433,9051;0,20117
434,8693;0,201494
435,8335;0,201773
436,7978;0,201763
437,7620;0,201332
438,7262;0,200508
439,6905;0,199445
440,6547;0,198371
441,6189;0,197527
442,5832;0,197114
443,5474;0,197204
444,5116;0,1977
445,4759;0,198363
446,4401;0,198914
447,4043;0,199131
448,3686;0,19891
449,3328;0,198293
450,2970;0,197463
451,2613;0,196684
452,2255;0,19619
453,1897;0,196073
454,1540;0,196243
455,1182;0,196483
456,0824;0,196549
457,0467;0,196299
458,0109;0,195786
458,9751;0,195223
459,9394;0,194804
460,9036;0,194555
461,8678;0,194352
462,8321;0,194022
463,7963;0,193448
464,7605;0,192635
465,7248;0,191731
466,6890;0,190975
467,6532;0,190583
468,6175;0,190657
469,5817;0,191144
470,5459;0,191861
471,5102;0,192557
472,4744;0,193031
473,4386;0,19324
474,4029;0,193297
475,3671;0,193352
476,3313;0,193479
477,2956;0,193649
478,2598;0,193789
479,2240;0,193843
480,1883;0,193818
481,1525;0,193776
482,1167;0,193784
483,0810;0,193872
484,0452;0,194026
485,0094;0,194224
485,9737;0,194474
486,9379;0,194818
487,9021;0,195292
488,8664;0,195883
489,8306;0,196517
490,7948;0,197081
491,7591;0,197479
492,7233;0,197687
493,6875;0,197758
494,6518;0,197786
495,6160;0,197858
496,5802;0,19803
497,5445;0,198339
498,5087;0,198808
499,4729;0,199441
500,4372;0,200201
501,4014;0,201001
502,3656;0,201722
503,3299;0,202273
504,2941;0,202634
505,2583;0,202851
506,2226;0,203001
507,1868;0,203146
508,1510;0,203324
509,1153;0,203549
510,0795;0,203821
511,0437;0,204136
512,0080;0,204486
512,9722;0,204866
513,9365;0,20527
514,9007;0,20569
515,8649;0,206115
516,8292;0,206526
517,7934;0,206906
518,7576;0,207252
519,7219;0,207581
520,6861;0,20792
521,6503;0,208269
522,6146;0,208591
523,5788;0,208811
524,5430;0,208855
525,5073;0,208696
526,4715;0,208397
527,4357;0,208082
528,4000;0,207861
529,3642;0,207774
530,3284;0,207782
531,2927;0,207806
532,2569;0,207761
533,2211;0,20759
534,1854;0,207278
535,1496;0,206854
536,1138;0,206387
537,0781;0,20596
538,0423;0,205637
539,0065;0,205433
539,9708;0,205297
540,9350;0,205151
541,8992;0,204937
542,8635;0,204671
543,8277;0,204449
544,7919;0,204395
545,7562;0,204594
546,7204;0,205035
547,6846;0,20562
548,6489;0,206225
549,6131;0,20677
550,5773;0,207252
551,5416;0,207713
552,5058;0,208193
553,4700;0,20869
554,4343;0,209159
555,3985;0,209535
556,3627;0,209755
557,3270;0,209774
558,2912;0,209558
559,2554;0,209095
560,2197;0,208397
561,1839;0,20752
562,1481;0,206561
563,1124;0,205622
564,0766;0,204774
565,0408;0,204033
566,0051;0,203363
566,9693;0,202713
567,9335;0,20206
568,8978;0,201424
569,8620;0,200856
570,8262;0,200401
571,7905;0,200074
572,7547;0,199855
573,7189;0,199709
574,6832;0,199596
575,6474;0,199482
576,6116;0,199348
577,5759;0,199189
578,5401;0,199018
579,5043;0,198854
580,4686;0,198713
581,4328;0,198593
582,3970;0,198467
583,3613;0,198297
584,3255;0,198057
585,2897;0,19776
586,2540;0,197458
587,2182;0,197226
588,1824;0,197123
589,1467;0,197164
590,1109;0,197308
591,0751;0,197462
592,0394;0,197521
593,0036;0,19741
593,9678;0,197115
594,9321;0,196682
595,8963;0,196185
596,8605;0,195685
597,8248;0,195215
598,7890;0,19477
599,7532;0,194323
600,7175;0,19385
601,6817;0,193348
602,6459;0,192847
603,6102;0,192387
604,5744;0,191999
605,5386;0,191679
606,5029;0,191384
607,4671;0,191044
608,4313;0,190592
609,3956;0,189993
610,3598;0,189265
611,3240;0,188467
612,2883;0,187679
613,2525;0,186963
614,2167;0,186336
615,1810;0,185759
616,1452;0,185149
617,1094;0,184406
618,0737;0,183458
619,0379;0,182294
620,0021;0,180961
620,9664;0,179545
621,9306;0,178142
622,8948;0,176836
623,8591;0,175688
624,8233;0,174715
625,7875;0,173902
626,7518;0,173188
627,7160;0,172505
628,6802;0,171805
629,6445;0,171074
630,6087;0,170325
631,5729;0,169574
632,5372;0,168835
633,5014;0,168115
634,4656;0,167429
635,4299;0,166808
636,3941;0,166286
637,3583;0,16588
638,3226;0,165571
639,2868;0,165305
640,2510;0,165016
641,2153;0,16466
642,1795;0,164233
643,1437;0,163774
644,1080;0,16334
645,0722;0,162978
646,0364;0,162703
647,0007;0,162496
647,9649;0,162312
648,9291;0,162103
649,8934;0,161841
650,8576;0,161532
651,8218;0,161211
652,7861;0,160931
653,7503;0,160746
654,7145;0,16069
655,6788;0,160769
656,6430;0,160952
657,6072;0,161173
658,5715;0,161337
659,5357;0,161337
660,4999;0,161094
661,4642;0,160606
662,4284;0,159959
663,3926;0,159276
664,3569;0,158673
665,3211;0,158242
666,2853;0,158036
667,2496;0,157951
668,2138;0,157605
669,1780;0,156652
670,1423;0,155257
671,1065;0,153768
672,0707;0,15229
673,0350;0,150755
673,9992;0,149095
674,9634;0,147318
675,9277;0,145515
676,8919;0,143812
677,8561;0,142293
678,8204;0,140967
679,7846;0,139796
680,7488;0,138728
681,7131;0,137728
682,6773;0,136785
683,6415;0,1359
684,6058;0,135086
685,5700;0,134349
686,5342;0,133688
687,4985;0,133082
688,4627;0,132504
689,4269;0,131933
690,3912;0,131362
691,3554;0,130804
692,3196;0,130273
693,2839;0,129777
694,2481;0,129314
695,2123;0,128876
696,1766;0,128452
697,1408;0,12803
698,1050;0,127598
699,0693;0,127142
700,0335;0,12665
700,9977;0,126122
701,9620;0,125563
702,9262;0,124988
703,8904;0,12441
704,8547;0,123844
705,8189;0,123297
706,7831;0,122769
707,7474;0,122256
708,7116;0,121748
709,6758;0,12123
710,6401;0,120687
711,6043;0,120104
712,5685;0,119481
713,5328;0,118835
714,4970;0,118202
715,4612;0,117493
716,4255;0,117008
717,3897;0,11658
718,3539;0,116139
719,3182;0,115593
720,2824;0,114878
721,2466;0,113999
722,2109;0,113023
723,1751;0,112038
724,1393;0,111106
725,1036;0,110245
726,0678;0,109439
727,0320;0,108662
727,9963;0,107902
728,9605;0,107164
729,9247;0,106456
730,8890;0,105782
731,8532;0,105137
732,8174;0,104507
733,7817;0,103883
734,7459;0,103265
735,7101;0,102661
736,6744;0,102088
737,6386;0,10156
738,6028;0,101084
739,5671;0,100652
740,5313;0,10024
741,4955;0,0998192
742,4598;0,0993654
743,4240;0,0988723
744,3882;0,0983521
745,3525;0,0978271
746,3167;0,0973146
747,2809;0,0968177
748,2452;0,0963247
749,2094;0,0958171
750,1736;0,0952808
751,1379;0,0947127
752,1021;0,0941218
753,0663;0,0935256
754,0306;0,0929449
754,9948;0,0923983
755,9590;0,0918965
756,9233;0,0914372
757,8875;0,0910048
758,8517;0,0905749
759,8160;0,0901266
760,7802;0,0896543
761,7444;0,0891728
762,7087;0,0887109
763,6729;0,0882946
764,6371;0,0879301
765,6014;0,0875978
766,5656;0,0872615
767,5298;0,0868884
768,4941;0,0864671
769,4583;0,0860129
770,4225;0,0855568
771,3868;0,0851269
772,3510;0,0847335
773,3152;0,0843687
774,2795;0,0840172
775,2437;0,0836711
776,2079;0,0833366
777,1722;0,0830285
778,1364;0,0827562
779,1006;0,0825135
780,0649;0,0822772
781,0291;0,082018
781,9933;0,0817143
782,9576;0,0813614
783,9218;0,0809714
784,8860;0,0805662
785,8503;0,0801682
786,8145;0,0797949
787,7787;0,0794573
788,7430;0,0791611
789,7072;0,0789073
790,6714;0,0786922
791,6357;0,0785079
792,5999;0,0783432
793,5641;0,078186
794,5284;0,0780256
795,4926;0,0778546
796,4568;0,0776695
797,4211;0,0774711
798,3853;0,0772641
799,3495;0,0770557
800,3138;0,0768536
801,2780;0,0766637
802,2422;0,0764888
803,2065;0,0763285
804,1707;0,0761783
805,1349;0,0760292
806,0992;0,0758692
807,0634;0,0756857
808,0276;0,0754716
808,9919;0,0752296
809,9561;0,0749733
810,9203;0,0747223
811,8846;0,0744944
812,8488;0,0742977
813,8130;0,074128
814,7773;0,0739726
815,7415;0,0738163
816,7057;0,0736482
817,6700;0,073466
818,6342;0,0732751
819,5984;0,0730852
820,5627;0,0729044
821,5269;0,0727337
822,4911;0,0725653
823,4554;0,0723864
824,4196;0,072187
825,3839;0,0719674
826,3481;0,071741
827,3123;0,0715293
828,2766;0,0713522
829,2408;0,0712173
830,2050;0,0711158
831,1693;0,0710248
832,1335;0,070916
833,0977;0,0707641
834,0620;0,0705552
835,0262;0,0702902
835,9904;0,0699839
836,9547;0,0696594
837,9189;0,0693399
838,8831;0,0690395
839,8474;0,06876
840,8116;0,0684928
841,7758;0,0682273
842,7401;0,067959
843,7043;0,0676932
844,6685;0,067442
845,6328;0,0672187
846,5970;0,067032
847,5612;0,0668836
848,5255;0,0667697
849,4897;0,0666826
850,4539;0,0666119
851,4182;0,0665459
852,3824;0,0664743
853,3466;0,0663907
854,3109;0,0662959
855,2751;0,0661963
856,2393;0,0661017
857,2036;0,0660207
858,1678;0,0659596
859,1320;0,0659226
860,0963;0,0659122
861,0605;0,06593
862,0247;0,0659753
862,9890;0,066045
863,9532;0,0661362
864,9174;0,0662485
865,8817;0,0663862
866,8459;0,0665548
867,8101;0,0667561
868,7744;0,0669831
869,7386;0,0672203
870,7028;0,0674494
871,6671;0,0676567
872,6313;0,067839
873,5955;0,0680027
874,5598;0,068158
875,5240;0,068312
876,4882;0,0684647
877,4525;0,0686117
878,4167;0,0687508
879,3809;0,0688895
880,3452;0,0690488
881,3094;0,0692588
882,2736;0,0695503
883,2379;0,0699457
884,2021;0,0704544
885,1663;0,0710758
886,1306;0,0718048
887,0948;0,0726363
888,0590;0,073564
889,0233;0,0745752
889,9875;0,0756452
890,9517;0,0767375
891,9160;0,0778085
892,8802;0,0788138
893,8444;0,079712
894,8087;0,0804636
895,7729;0,0810294
896,7371;0,081373
897,7014;0,0814679
898,6656;0,0813066
899,6298;0,0809049
900,5941;0,0802983
901,5583;0,0795325
902,5225;0,0786544
903,4868;0,0777084
904,4510;0,0767389
905,4152;0,0757926
906,3795;0,0749167
907,3437;0,0741516
908,3079;0,0735215
909,2722;0,0730303
910,2364;0,0726639
911,2007;0,0723996
912,1649;0,0722151
913,1292;0,0720949
914,0934;0,0720312
915,0576;0,0720217
916,0219;0,0720668
916,9861;0,0721674
917,9503;0,0723218
918,9146;0,0725242
919,8788;0,0727627
920,8430;0,0730213
921,8073;0,0732842
922,7715;0,0735419
923,7357;0,0737934
924,7000;0,0740448
925,6642;0,0743024
926,6284;0,0745671
927,5927;0,074833
928,5569;0,0750909
929,5211;0,075335
930,4854;0,0755661
931,4496;0,0757918
932,4138;0,0760223
933,3781;0,0762671
934,3423;0,0765353
935,3065;0,0768361
936,2708;0,0771805
937,2350;0,0775789
938,1992;0,0780377
939,1635;0,0785575
940,1277;0,0791336
941,0919;0,0797605
942,0562;0,0804356
943,0204;0,0811609
943,9846;0,0819417
944,9489;0,082785
945,9131;0,083698
946,8773;0,084687
947,8416;0,0857554
948,8058;0,0869009
949,7700;0,0881145
950,7343;0,0893841
951,6985;0,0907021
952,6627;0,0920721
953,6270;0,0935109
954,5912;0,0950409
955,5554;0,0966797
956,5197;0,0984305
957,4839;0,100281
958,4481;0,102209
959,4124;0,10419
960,3766;0,106204
961,3408;0,108231
962,3051;0,110253
963,2693;0,112255
964,2335;0,11423
965,1978;0,116184
966,1620;0,118136
967,1262;0,120117
968,0905;0,122158
969,0547;0,124286
970,0189;0,126526
970,9832;0,1289
971,9474;0,131434
972,9116;0,134157
973,8759;0,137102
974,8401;0,140297
975,8043;0,143767
976,7686;0,147517
977,7328;0,151533
978,6970;0,155769
979,6613;0,160145
980,6255;0,164557
981,5897;0,168889
982,5540;0,173031
983,5182;0,17689
984,4824;0,180406
985,4467;0,18355
986,4109;0,186331
987,3751;0,188779
988,3394;0,190941
989,3036;0,192861
990,2678;0,194568
991,2321;0,196074
992,1963;0,197381
993,1605;0,198501
994,1248;0,199469
995,0890;0,20034
996,0532;0,20118
997,0175;0,202046
997,9817;0,202969
998,9459;0,203955
999,9102;0,204998
1000,8744;0,206098
1001,8386;0,207267
1002,8029;0,208535
1003,7671;0,20994
1004,7313;0,21152
1005,6956;0,21331
1006,6598;0,21534
1007,6240;0,217631
1008,5883;0,220194
1009,5525;0,223021
1010,5167;0,226084
1011,4810;0,229334
1012,4452;0,232703
1013,4094;0,236113
1014,3737;0,239489
1015,3379;0,242769
1016,3021;0,245901
1017,2664;0,248856
1018,2306;0,251616
1019,1948;0,254178
1020,1591;0,256551
1021,1233;0,25875
1022,0875;0,260796
1023,0518;0,262713
1024,0160;0,264523
1024,9802;0,266239
1025,9445;0,267863
1026,9087;0,269383
1027,8729;0,270768
1028,8372;0,271965
1029,8014;0,272895
1030,7656;0,273463
1031,7299;0,27357
1032,6941;0,273134
1033,6583;0,272125
1034,6226;0,270577
1035,5868;0,268596
1036,5510;0,266345
1037,5153;0,264013
1038,4795;0,261782
1039,4437;0,259798
1040,4080;0,258156
1041,3722;0,256887
1042,3364;0,255963
1043,3007;0,255306
1044,2649;0,254805
1045,2291;0,254339
1046,1934;0,253801
1047,1576;0,253108
1048,1218;0,252209
1049,0861;0,251078
1050,0503;0,249699
1051,0145;0,248066
1051,9788;0,246181
1052,9430;0,244061
1053,9072;0,241736
1054,8715;0,239241
1055,8357;0,236591
1056,7999;0,233773
1057,7642;0,230737
1058,7284;0,22742
1059,6926;0,223781
1060,6569;0,219838
1061,6211;0,215677
1062,5853;0,211438
1063,5496;0,207284
1064,5138;0,20335
1065,4780;0,199721
1066,4423;0,196423
1067,4065;0,193429
1068,3707;0,190686
1069,3350;0,188131
1070,2992;0,185705
1071,2634;0,183356
1072,2277;0,181036
1073,1919;0,178703
1074,1561;0,176324
1075,1204;0,173879
1076,0846;0,171374
1077,0488;0,168839
1078,0131;0,16633
1078,9773;0,163912
1079,9415;0,161643
1080,9058;0,159563
1081,8700;0,157692
1082,8342;0,156031
1083,7985;0,154577
1084,7627;0,153324
1085,7269;0,15226
1086,6912;0,151364
1087,6554;0,150606
1088,6196;0,149952
1089,5839;0,149378
1090,5481;0,148874
1091,5123;0,148448
1092,4766;0,148113
1093,4408;0,147876
1094,4050;0,147736
1095,3693;0,147681
1096,3335;0,147699
1097,2977;0,147778
1098,2620;0,147906
1099,2262;0,148069
1100,1904;0,148247
1101,1547;0,148416
1102,1189;0,148554
1103,0831;0,148639
1104,0474;0,148653
1105,0116;0,148579
1105,9758;0,148401
1106,9401;0,148104
1107,9043;0,147677
1108,8685;0,147111
1109,8328;0,146391
1110,7970;0,145495
1111,7612;0,144403
1112,7255;0,143113
1113,6897;0,141649
1114,6539;0,140073
1115,6182;0,13847
1116,5824;0,136924
1117,5466;0,13549
1118,5109;0,134177
1119,4751;0,132949
1120,4393;0,131732
1121,4036;0,130442
1122,3678;0,128999
1123,3320;0,127345
1124,2963;0,125453
1125,2605;0,123324
1126,2247;0,120986
1127,1890;0,118485
1128,1532;0,115874
1129,1174;0,113207
1130,0817;0,110534
1131,0459;0,107897
1132,0101;0,105335
1132,9744;0,102886
1133,9386;0,10059
1134,9028;0,0984903
1135,8671;0,0966309
1136,8313;0,0950513
1137,7955;0,0937775
1138,7598;0,0928168
1139,7240;0,0921551
1140,6882;0,0917615
1141,6525;0,0915964
1142,6167;0,0916209
1143,5809;0,0918033
1144,5452;0,0921207
1145,5094;0,0925575
1146,4736;0,0931017
1147,4379;0,0937427
1148,4021;0,0944685
1149,3663;0,0952643
1150,3306;0,0961094
1151,2948;0,0969741
1152,2590;0,0978201
1153,2233;0,0986019
1154,1875;0,0992728
1155,1517;0,0997886
1156,1160;0,100108
1157,0802;0,100191
1158,0444;0,0999896
1159,0087;0,0994492
1159,9729;0,0985105
1160,9371;0,0971214
1161,9014;0,0952539
1162,8656;0,0929168
1163,8298;0,0901633
1164,7941;0,0870863
1165,7583;0,0838066
1166,7225;0,0804551
1167,6868;0,0771552
1168,6510;0,0740071
1169,6152;0,0710787
1170,5795;0,0684045
1171,5437;0,0659915
1172,5079;0,0638309
1173,4722;0,0619081
1174,4364;0,0602099
1175,4006;0,0587247
1176,3649;0,0574394
1177,3291;0,0563367
1178,2933;0,0553946
1179,2576;0,0545889
1180,2218;0,0538974
1181,1860;0,0533029
1182,1503;0,0527941
1183,1145;0,0523654
1184,0787;0,0520163
1185,0430;0,0517497
1186,0072;0,051571
1186,9714;0,0514859
1187,9357;0,0514989
1188,8999;0,0516122
1189,8641;0,0518256
1190,8284;0,0521372
1191,7926;0,0525434
1192,7568;0,0530394
1193,7211;0,0536182
1194,6853;0,0542696
1195,6495;0,0549808
1196,6138;0,0557368
1197,5780;0,0565219
1198,5422;0,0573224
1199,5065;0,0580567
1200,4707;0,058869
1201,4349;0,0596761
1202,3992;0,0604732
1203,3634;0,0612535
1204,3276;0,0620077
1205,2919;0,0627277
1206,2561;0,0634121
1207,2203;0,0640717
1208,1846;0,0647309
1209,1488;0,0654226
1210,1130;0,0661794
1211,0773;0,0670233
1212,0415;0,0679593
1213,0057;0,0689769
1213,9700;0,0700569
1214,9342;0,0711803
1215,8984;0,0723324
1216,8627;0,0735014
1217,8269;0,0746738
1218,7911;0,0758322
1219,7554;0,0769562
1220,7196;0,0780277
1221,6838;0,0790353
1222,6481;0,0799762
1223,6123;0,0808548
1224,5765;0,0816786
1225,5408;0,0824556
1226,5050;0,0831925
1227,4692;0,0838933
1228,4335;0,0845585
1229,3977;0,0851855
1230,3619;0,0857684
1231,3262;0,0863015
1232,2904;0,0867812
1233,2546;0,087208
1234,2189;0,0875853
1235,1831;0,0879172
1236,1473;0,0882056
1237,1116;0,0884497
1238,0758;0,0886472
1239,0400;0,0887954
1240,0043;0,0888931
1240,9685;0,0889396
1241,9327;0,0889348
1242,8970;0,088878
1243,8612;0,0887679
1244,8254;0,0886027
1245,7897;0,0883805
1246,7539;0,0881004
1247,7181;0,0877645
1248,6824;0,0873783
1249,6466;0,0869518
1250,6108;0,086498
1251,5751;0,0860309
1252,5393;0,0855627
1253,5035;0,0851002
1254,4678;0,0846427
1255,4320;0,0841813
1256,3962;0,0837017
1257,3605;0,0831889
1258,3247;0,0826337
1259,2889;0,0820355
1260,2532;0,0814007
1261,2174;0,0807368
1262,1816;0,0800463
1263,1459;0,0793245
1264,1101;0,0785631
1265,0743;0,077756
1266,0386;0,0769024
1267,0028;0,0760063
1267,9670;0,0750725
1268,9313;0,0741047
1269,8955;0,0731064
1270,8597;0,0720847
1271,8240;0,0710524
1272,7882;0,0700262
1273,7524;0,0690228
1274,7167;0,0680548
1275,6809;0,0671295
1276,6451;0,0662492
1277,6094;0,0654121
1278,5736;0,064612
1279,5378;0,0638397
1280,5021;0,0630857
1281,4663;0,0623434
1282,4305;0,061613
1283,3948;0,0609006
1284,3590;0,0602167
1285,3232;0,059573
1286,2875;0,0589805
1287,2517;0,0584495
1288,2159;0,0579886
1289,1802;0,0576037
1290,1444;0,0572962
1291,1086;0,0570634
1292,0729;0,0569
1293,0371;0,0568016
1294,0013;0,0567668
1294,9656;0,0567973
1295,9298;0,0568971
1296,8940;0,0570703
1297,8583;0,0573195
1298,8225;0,0576455
1299,7867;0,0580452
1300,7510;0,0585113
1301,7152;0,0590339
1302,6794;0,0596022
1303,6437;0,0602086
1304,6079;0,0608502
1305,5721;0,0615269
1306,5364;0,0622364
1307,5006;0,0629709
1308,4648;0,063719
1309,4291;0,0644687
1310,3933;0,0652116
1311,3575;0,0659406
1312,3218;0,0666463
1313,2860;0,0673111
1314,2502;0,0679086
1315,2145;0,0684071
1316,1787;0,0687758
1317,1429;0,0689934
1318,1072;0,0690567
1319,0714;0,0689865
1320,0356;0,0688234
1320,9999;0,0686132
1321,9641;0,0683914
1322,9283;0,0681764
1323,8926;0,0679737
1324,8568;0,0677836
1325,8210;0,0676055
1326,7853;0,0674376
1327,7495;0,0672742
1328,7137;0,0671046
1329,6780;0,0669147
1330,6422;0,0666918
1331,6064;0,0664283
1332,5707;0,0661218
1333,5349;0,065771
1334,4991;0,0653687
1335,4634;0,0648976
1336,4276;0,0643345
1337,3918;0,0636656
1338,3561;0,0629109
1339,3203;0,0621379
1340,2845;0,0614365
1341,2488;0,0608656
1342,2130;0,0604256
1343,1772;0,0600796
1344,1415;0,05979
1345,1057;0,0595407
1346,0699;0,0593397
1347,0342;0,0592095
1347,9984;0,0591725
1348,9626;0,0592404
1349,9269;0,0594095
1350,8911;0,0596639
1351,8553;0,0599842
1352,8196;0,0603559
1353,7838;0,0607742
1354,7480;0,0612417
1355,7123;0,0617598
1356,6765;0,0623205
1357,6407;0,0629073
1358,6050;0,0635044
1359,5692;0,0641058
