TITLE;
DATA TYPE;INFRARED SPECTRUM
ORIGIN;JASCO
OWNER;
DATE;25/03/10
TIME;20:09:58
SPECTROMETER/DATA SYSTEM;
LOCALE;9226
RESOLUTION;
DELTAX;0,964233
XUNITS;1/CM
YUNITS;ABSORBANCE
FIRSTX;  399,1927
LASTX; 4000,6047
NPOINTS;    3736
FIRSTY;     0,10227
MAXY;     0,14745
MINY;     0,01040
XYDATA
399,1927;0,102272
400,1569;0,100781
401,1211;0,0995351
402,0854;0,0985988
403,0496;0,0980323
404,0138;0,0978976
404,9781;0,09817
405,9423;0,0986586
406,9065;0,0990388
407,8708;0,0990172
408,8350;0,0985142
409,7992;0,0977279
410,7635;0,097038
411,7277;0,0967979
412,6919;0,097141
413,6562;0,0979491
414,6204;0,0989821
415,5846;0,100013
416,5489;0,100868
417,5131;0,101421
418,4773;0,101624
419,4416;0,101611
420,4058;0,101619
421,3700;0,101776
422,3343;0,102056
423,2985;0,102379
424,2627;0,102677
425,2270;0,102916
426,1912;0,103084
427,1554;0,103169
428,1197;0,103139
429,0839;0,102948
430,0481;0,102578
431,0124;0,102085
431,9766;0,101599
432,9408;0,101267
433,9051;0,101154
434,8693;0,101179
435,8335;0,101156
436,7978;0,100923
437,7620;0,100471
438,7262;0,099956
439,6905;0,0996124
440,6547;0,0996153
441,6189;0,0999782
442,5832;0,100525
443,5474;0,100977
444,5116;0,101128
445,4759;0,100953
446,4401;0,100569
447,4043;0,100102
448,3686;0,0996016
449,3328;0,0990509
450,2970;0,0984343
451,2613;0,0977994
452,2255;0,0972574
453,1897;0,0969201
454,1540;0,09683
455,1182;0,0969338
456,0824;0,0971093
457,0467;0,0972244
458,0109;0,0972014
458,9751;0,0970401
459,9394;0,096774
460,9036;0,0964114
461,8678;0,0959308
462,8321;0,0953248
463,7963;0,0946459
464,7605;0,0940178
465,7248;0,093592
466,6890;0,0934677
467,6532;0,0936315
468,6175;0,0939641
469,5817;0,0942985
470,5459;0,0944935
471,5102;0,0945004
472,4744;0,0943974
473,4386;0,0943496
474,4029;0,0944993
475,3671;0,094878
476,3313;0,0954001
477,2956;0,0959177
478,2598;0,0962895
479,2240;0,0964429
480,1883;0,0964097
481,1525;0,0963139
482,1167;0,0963121
483,0810;0,0965142
484,0452;0,096927
485,0094;0,097457
485,9737;0,0979763
486,9379;0,0983994
487,9021;0,0987112
488,8664;0,0989409
489,8306;0,0991237
490,7948;0,0992825
491,7591;0,0994335
492,7233;0,0996019
493,6875;0,0998241
494,6518;0,100133
495,6160;0,10054
496,5802;0,101033
497,5445;0,101591
498,5087;0,102193
499,4729;0,102823
500,4372;0,103446
501,4014;0,103998
502,3656;0,104399
503,3299;0,104598
504,2941;0,104609
505,2583;0,104515
506,2226;0,104432
507,1868;0,104456
508,1510;0,104627
509,1153;0,104918
510,0795;0,105258
511,0437;0,105576
512,0080;0,105839
512,9722;0,106066
513,9365;0,106319
514,9007;0,106668
515,8649;0,107158
516,8292;0,107765
517,7934;0,108385
518,7576;0,108886
519,7219;0,109191
520,6861;0,109326
521,6503;0,109395
522,6146;0,109503
523,5788;0,109703
524,5430;0,109965
525,5073;0,110196
526,4715;0,110297
527,4357;0,110239
528,4000;0,110076
529,3642;0,109903
530,3284;0,10979
531,2927;0,109755
532,2569;0,109767
533,2211;0,109778
534,1854;0,109739
535,1496;0,109624
536,1138;0,109424
537,0781;0,109151
538,0423;0,108838
539,0065;0,108537
539,9708;0,108311
540,9350;0,108211
541,8992;0,108254
542,8635;0,108412
543,8277;0,10863
544,7919;0,10885
545,7562;0,109042
546,7204;0,109208
547,6846;0,109374
548,6489;0,109558
549,6131;0,109761
550,5773;0,109967
551,5416;0,110171
552,5058;0,110388
553,4700;0,110665
554,4343;0,111043
555,3985;0,111535
556,3627;0,11209
557,3270;0,112603
558,2912;0,112951
559,2554;0,113038
560,2197;0,112837
561,1839;0,112398
562,1481;0,111826
563,1124;0,111238
564,0766;0,110721
565,0408;0,11031
566,0051;0,109993
566,9693;0,109732
567,9335;0,10949
568,8978;0,109254
569,8620;0,109033
570,8262;0,108856
571,7905;0,108747
572,7547;0,108718
573,7189;0,108758
574,6832;0,108836
575,6474;0,108915
576,6116;0,10896
577,5759;0,108958
578,5401;0,108915
579,5043;0,108851
580,4686;0,108784
581,4328;0,108716
582,3970;0,108638
583,3613;0,108534
584,3255;0,108399
585,2897;0,108245
586,2540;0,108097
587,2182;0,107985
588,1824;0,107928
589,1467;0,107926
590,1109;0,107958
591,0751;0,107987
592,0394;0,107969
593,0036;0,107871
593,9678;0,107685
594,9321;0,107431
595,8963;0,107146
596,8605;0,106874
597,8248;0,10665
598,7890;0,106488
599,7532;0,106377
600,7175;0,106288
601,6817;0,106185
602,6459;0,106044
603,6102;0,105863
604,5744;0,105658
605,5386;0,105452
606,5029;0,105269
607,4671;0,105117
608,4313;0,104986
609,3956;0,104851
610,3598;0,104684
611,3240;0,104465
612,2883;0,10419
613,2525;0,103873
614,2167;0,103531
615,1810;0,10317
616,1452;0,102772
617,1094;0,102308
618,0737;0,101753
619,0379;0,101109
620,0021;0,100411
620,9664;0,0997074
621,9306;0,0990463
622,8948;0,098456
623,8591;0,0979419
624,8233;0,0974723
625,7875;0,0970493
626,7518;0,0966449
627,7160;0,0962403
628,6802;0,0958266
629,6445;0,0954038
630,6087;0,0949736
631,5729;0,0945378
632,5372;0,0940984
633,5014;0,0936634
634,4656;0,0932514
635,4299;0,0928903
636,3941;0,0926074
637,3583;0,0924153
638,3226;0,0923017
639,2868;0,0922305
640,2510;0,0921539
641,2153;0,0920321
642,1795;0,0918486
643,1437;0,0916144
644,1080;0,0913566
645,0722;0,0911022
646,0364;0,0908656
647,0007;0,0906499
647,9649;0,0904581
648,9291;0,0903038
649,8934;0,0902107
650,8576;0,0901987
651,8218;0,0902676
652,7861;0,0903913
653,7503;0,0905264
654,7145;0,0906298
655,6788;0,0906761
656,6430;0,0906678
657,6072;0,0906305
658,5715;0,0905963
659,5357;0,090581
660,4999;0,0905643
661,4642;0,0904891
662,4284;0,0902789
663,3926;0,0898655
664,3569;0,0892237
665,3211;0,0884193
666,2853;0,0876434
667,2496;0,087145
668,2138;0,0869945
669,1780;0,0869945
670,1423;0,0869774
671,1065;0,0868742
672,0707;0,0865924
673,0350;0,0860561
673,9992;0,0852674
674,9634;0,0843028
675,9277;0,0832749
676,8919;0,0822871
677,8561;0,0814006
678,8204;0,0806306
679,7846;0,0799639
680,7488;0,0793734
681,7131;0,0788277
682,6773;0,0782982
683,6415;0,077774
684,6058;0,0772675
685,5700;0,0768055
686,5342;0,0764083
687,4985;0,0760732
688,4627;0,0757783
689,4269;0,0754936
690,3912;0,0752065
691,3554;0,0749274
692,3196;0,0746794
693,2839;0,0744807
694,2481;0,0743339
695,2123;0,0742242
696,1766;0,0741245
697,1408;0,0740029
698,1050;0,0738319
699,0693;0,0735972
700,0335;0,0733029
700,9977;0,0729699
701,9620;0,0726278
702,9262;0,0723033
703,8904;0,0720042
704,8547;0,071731
705,8189;0,0714729
706,7831;0,0712165
707,7474;0,0709513
708,7116;0,0706723
709,6758;0,0703793
710,6401;0,0700752
711,6043;0,0697635
712,5685;0,0694469
713,5328;0,0691265
714,4970;0,0688019
715,4612;0,068152
716,4255;0,0678818
717,3897;0,0676233
718,3539;0,0673468
719,3182;0,0670131
720,2824;0,0665948
721,2466;0,0660963
722,2109;0,0655551
723,1751;0,0650204
724,1393;0,0645258
725,1036;0,0640759
726,0678;0,0636512
727,0320;0,0632262
727,9963;0,0627876
728,9605;0,0623423
729,9247;0,0619103
730,8890;0,0615102
731,8532;0,0611489
732,8174;0,0608211
733,7817;0,0605175
734,7459;0,0602315
735,7101;0,0599601
736,6744;0,059698
737,6386;0,0594342
738,6028;0,0591541
739,5671;0,0588487
740,5313;0,0585243
741,4955;0,0582033
742,4598;0,0579151
743,4240;0,05768
744,3882;0,0574978
745,3525;0,0573464
746,3167;0,0571919
747,2809;0,0570019
748,2452;0,0567571
749,2094;0,0564555
750,1736;0,0561094
751,1379;0,0557397
752,1021;0,0553687
753,0663;0,0550144
754,0306;0,0546867
754,9948;0,0543869
755,9590;0,0541093
756,9233;0,0538466
757,8875;0,0535925
758,8517;0,0533438
759,8160;0,0530986
760,7802;0,0528557
761,7444;0,0526149
762,7087;0,0523793
763,6729;0,0521556
764,6371;0,0519516
765,6014;0,0517691
766,5656;0,0516006
767,5298;0,0514294
768,4941;0,0512385
769,4583;0,0510195
770,4225;0,0507791
771,3868;0,0505367
772,3510;0,0503152
773,3152;0,0501313
774,2795;0,0499893
775,2437;0,0498811
776,2079;0,0497899
777,1722;0,0496966
778,1364;0,0495852
779,1006;0,0494482
780,0649;0,0492881
781,0291;0,0491155
781,9933;0,0489426
782,9576;0,0487751
783,9218;0,0486073
784,8860;0,0484253
785,8503;0,0482178
786,8145;0,047987
787,7787;0,0477526
788,7430;0,0475448
789,7072;0,0473888
790,6714;0,0472921
791,6357;0,0472406
792,5999;0,0472064
793,5641;0,0471625
794,5284;0,0470942
795,4926;0,0470027
796,4568;0,0469004
797,4211;0,0468019
798,3853;0,0467167
799,3495;0,0466464
800,3138;0,0465855
801,2780;0,0465253
802,2422;0,0464573
803,2065;0,046376
804,1707;0,0462798
805,1349;0,0461707
806,0992;0,0460528
807,0634;0,0459318
808,0276;0,0458134
808,9919;0,0457027
809,9561;0,0456034
810,9203;0,0455164
811,8846;0,0454391
812,8488;0,045365
813,8130;0,0452857
814,7773;0,0451933
815,7415;0,0450843
816,7057;0,0449619
817,6700;0,0448365
818,6342;0,0447217
819,5984;0,0446279
820,5627;0,0445557
821,5269;0,0444927
822,4911;0,0444177
823,4554;0,0443115
824,4196;0,0441686
825,3839;0,0440033
826,3481;0,0438447
827,3123;0,0437225
828,2766;0,0436514
829,2408;0,0436237
830,2050;0,0436135
831,1693;0,043591
832,1335;0,0435366
833,0977;0,0434477
834,0620;0,0433359
835,0262;0,0432163
835,9904;0,0430988
836,9547;0,0429843
837,9189;0,0428672
838,8831;0,0427414
839,8474;0,0426051
840,8116;0,0424616
841,7758;0,0423181
842,7401;0,0421816
843,7043;0,0420568
844,6685;0,0419449
845,6328;0,0418445
846,5970;0,0417542
847,5612;0,0416755
848,5255;0,0416138
849,4897;0,0415765
850,4539;0,041568
851,4182;0,0415839
852,3824;0,0416091
853,3466;0,0416219
854,3109;0,0416033
855,2751;0,0415477
856,2393;0,0414673
857,2036;0,0413886
858,1678;0,0413399
859,1320;0,0413377
860,0963;0,0413785
861,0605;0,041442
862,0247;0,0415027
862,9890;0,0415445
863,9532;0,041569
864,9174;0,0415928
865,8817;0,0416359
866,8459;0,0417096
867,8101;0,0418102
868,7744;0,0419244
869,7386;0,0420396
870,7028;0,0421524
871,6671;0,0422688
872,6313;0,042395
873,5955;0,0425287
874,5598;0,0426556
875,5240;0,0427562
876,4882;0,0428179
877,4525;0,0428436
878,4167;0,0428517
879,3809;0,0428685
880,3452;0,042918
881,3094;0,0430161
882,2736;0,0431707
883,2379;0,0433841
884,2021;0,0436555
885,1663;0,0439815
886,1306;0,0443549
887,0948;0,0447667
888,0590;0,0452081
889,0233;0,0456736
889,9875;0,0461594
890,9517;0,0466606
891,9160;0,0471663
892,8802;0,0476573
893,8444;0,0481075
894,8087;0,0484877
895,7729;0,0487707
896,7371;0,0489362
897,7014;0,0489741
898,6656;0,0488868
899,6298;0,0486874
900,5941;0,0483963
901,5583;0,048036
902,5225;0,047627
903,4868;0,0471872
904,4510;0,0467333
905,4152;0,046284
906,3795;0,0458601
907,3437;0,0454827
908,3079;0,0451683
909,2722;0,0449254
910,2364;0,0447528
911,2007;0,0446401
912,1649;0,0445714
913,1292;0,0445305
914,0934;0,0445066
915,0576;0,0444977
916,0219;0,0445103
916,9861;0,0445545
917,9503;0,0446359
918,9146;0,0447506
919,8788;0,0448855
920,8430;0,0450244
921,8073;0,0451559
922,7715;0,045278
923,7357;0,0453959
924,7000;0,0455158
925,6642;0,0456389
926,6284;0,0457606
927,5927;0,0458755
928,5569;0,0459835
929,5211;0,0460927
930,4854;0,046215
931,4496;0,0463578
932,4138;0,0465182
933,3781;0,0466834
934,3423;0,046839
935,3065;0,0469796
936,2708;0,047115
937,2350;0,0472668
938,1992;0,0474574
939,1635;0,0476973
940,1277;0,0479805
941,0919;0,0482883
942,0562;0,0486015
943,0204;0,0489106
943,9846;0,0492207
944,9489;0,049547
945,9131;0,0499065
946,8773;0,0503094
947,8416;0,0507559
948,8058;0,0512371
949,7700;0,051741
950,7343;0,0522588
951,6985;0,05279
952,6627;0,0533441
953,6270;0,0539366
954,5912;0,0545819
955,5554;0,055286
956,5197;0,0560436
957,4839;0,0568419
958,4481;0,0576686
959,4124;0,0585186
960,3766;0,0593947
961,3408;0,060302
962,3051;0,0612408
963,2693;0,0622027
964,2335;0,0631725
965,1978;0,064134
966,1620;0,0650771
967,1262;0,0660016
968,0905;0,0669193
969,0547;0,0678535
970,0189;0,068836
970,9832;0,0699021
971,9474;0,0710822
972,9116;0,0723952
973,8759;0,0738461
974,8401;0,0754307
975,8043;0,077144
976,7686;0,0789859
977,7328;0,0809594
978,6970;0,0830614
979,6613;0,0852704
980,6255;0,0875401
981,5897;0,0898032
982,5540;0,0919851
983,5182;0,0940211
984,4824;0,09587
985,4467;0,0975178
986,4109;0,0989729
987,3751;0,100255
988,3394;0,101386
989,3036;0,102384
990,2678;0,103267
991,2321;0,104051
992,1963;0,104756
993,1605;0,1054
994,1248;0,106007
995,0890;0,106595
996,0532;0,107185
997,0175;0,107792
997,9817;0,108425
998,9459;0,109085
999,9102;0,109762
1000,8744;0,110442
1001,8386;0,11112
1002,8029;0,111802
1003,7671;0,112508
1004,7313;0,113262
1005,6956;0,114081
1006,6598;0,114969
1007,6240;0,115921
1008,5883;0,116939
1009,5525;0,11803
1010,5167;0,11921
1011,4810;0,120493
1012,4452;0,121881
1013,4094;0,123358
1014,3737;0,124903
1015,3379;0,126486
1016,3021;0,128086
1017,2664;0,129683
1018,2306;0,131261
1019,1948;0,132806
1020,1591;0,134307
1021,1233;0,135763
1022,0875;0,137175
1023,0518;0,138552
1024,0160;0,139899
1024,9802;0,141216
1025,9445;0,142496
1026,9087;0,143716
1027,8729;0,144845
1028,8372;0,145838
1029,8014;0,146641
1030,7656;0,147195
1031,7299;0,147445
1032,6941;0,147348
1033,6583;0,146884
1034,6226;0,146066
1035,5868;0,144941
1036,5510;0,143593
1037,5153;0,142133
1038,4795;0,140681
1039,4437;0,139349
1040,4080;0,138224
1041,3722;0,137351
1042,3364;0,136735
1043,3007;0,136345
1044,2649;0,136124
1045,2291;0,136006
1046,1934;0,135928
1047,1576;0,135834
1048,1218;0,135687
1049,0861;0,135463
1050,0503;0,135147
1051,0145;0,134727
1051,9788;0,134188
1052,9430;0,133515
1053,9072;0,132691
1054,8715;0,131708
1055,8357;0,130561
1056,7999;0,129247
1057,7642;0,127753
1058,7284;0,126056
1059,6926;0,124137
1060,6569;0,121995
1061,6211;0,119665
1062,5853;0,117223
1063,5496;0,114768
1064,5138;0,112399
1065,4780;0,110186
1066,4423;0,108162
1067,4065;0,106325
1068,3707;0,104657
1069,3350;0,103133
1070,2992;0,101728
1071,2634;0,100414
1072,2277;0,0991578
1073,1919;0,097923
1074,1561;0,0966768
1075,1204;0,0954008
1076,0846;0,0940964
1077,0488;0,0927839
1078,0131;0,0914954
1078,9773;0,090265
1079,9415;0,0891201
1080,9058;0,0880776
1081,8700;0,0871439
1082,8342;0,0863184
1083,7985;0,0855973
1084,7627;0,0849768
1085,7269;0,0844529
1086,6912;0,0840206
1087,6554;0,0836721
1088,6196;0,0833962
1089,5839;0,0831801
1090,5481;0,0830124
1091,5123;0,0828872
1092,4766;0,0828062
1093,4408;0,082779
1094,4050;0,0828187
1095,3693;0,0829359
1096,3335;0,0831315
1097,2977;0,0833929
1098,2620;0,0836963
1099,2262;0,0840134
1100,1904;0,0843208
1101,1547;0,0846051
1102,1189;0,0848614
1103,0831;0,0850855
1104,0474;0,0852663
1105,0116;0,0853845
1105,9758;0,085418
1106,9401;0,0853512
1107,9043;0,0851804
1108,8685;0,0849092
1109,8328;0,0845385
1110,7970;0,0840585
1111,7612;0,0834511
1112,7255;0,0827028
1113,6897;0,081821
1114,6539;0,0808424
1115,6182;0,0798262
1116,5824;0,0788369
1117,5466;0,0779233
1118,5109;0,0771059
1119,4751;0,0763735
1120,4393;0,0756902
1121,4036;0,0750049
1122,3678;0,0742618
1123,3320;0,0734105
1124,2963;0,0724156
1125,2605;0,0712658
1126,2247;0,0699764
1127,1890;0,0685854
1128,1532;0,0671415
1129,1174;0,0656909
1130,0817;0,0642665
1131,0459;0,0628855
1132,0101;0,0615541
1132,9744;0,0602776
1133,9386;0,0590678
1134,9028;0,0579475
1135,8671;0,0569469
1136,8313;0,0560959
1137,7955;0,0554154
1138,7598;0,0549103
1139,7240;0,0545694
1140,6882;0,0543701
1141,6525;0,0542863
1142,6167;0,054296
1143,5809;0,0543839
1144,5452;0,0545416
1145,5094;0,0547642
1146,4736;0,0550474
1147,4379;0,0553862
1148,4021;0,0557754
1149,3663;0,056209
1150,3306;0,05668
1151,2948;0,0571791
1152,2590;0,0576935
1153,2233;0,0582069
1154,1875;0,0587001
1155,1517;0,0591508
1156,1160;0,059533
1157,0802;0,0598144
1158,0444;0,0599553
1159,0087;0,0599088
1159,9729;0,0596247
1160,9371;0,0590581
1161,9014;0,0581797
1162,8656;0,0569862
1163,8298;0,0555051
1164,7941;0,0537926
1165,7583;0,0519245
1166,7225;0,0499835
1167,6868;0,0480462
1168,6510;0,0461745
1169,6152;0,044413
1170,5795;0,0427896
1171,5437;0,0413196
1172,5079;0,0400089
1173,4722;0,0388559
1174,4364;0,0378531
1175,4006;0,0369882
1176,3649;0,0362468
1177,3291;0,0356145
1178,2933;0,0350789
1179,2576;0,0346288
1180,2218;0,0342528
1181,1860;0,0339383
1182,1503;0,0336724
1183,1145;0,0334453
1184,0787;0,0332532
1185,0430;0,0330997
1186,0072;0,0329931
1186,9714;0,0329421
1187,9357;0,0329508
1188,8999;0,0330173
1189,8641;0,0331361
1190,8284;0,033302
1191,7926;0,0335133
1192,7568;0,0337719
1193,7211;0,0340795
1194,6853;0,0344339
1195,6495;0,0348263
1196,6138;0,0352423
1197,5780;0,0356665
1198,5422;0,0360874
1199,5065;0,0364456
1200,4707;0,0368562
1201,4349;0,0372613
1202,3992;0,0376607
1203,3634;0,0380496
1204,3276;0,0384206
1205,2919;0,0387667
1206,2561;0,0390861
1207,2203;0,0393847
1208,1846;0,0396755
1209,1488;0,039976
1210,1130;0,040304
1211,0773;0,0406737
1212,0415;0,0410936
1213,0057;0,0415659
1213,9700;0,0420859
1214,9342;0,0426439
1215,8984;0,0432255
1216,8627;0,0438138
1217,8269;0,044392
1218,7911;0,044948
1219,7554;0,0454771
1220,7196;0,0459812
1221,6838;0,0464656
1222,6481;0,0469341
1223,6123;0,0473851
1224,5765;0,047812
1225,5408;0,0482072
1226,5050;0,0485665
1227,4692;0,0488914
1228,4335;0,0491874
1229,3977;0,0494605
1230,3619;0,0497136
1231,3262;0,0499457
1232,2904;0,0501534
1233,2546;0,0503341
1234,2189;0,050488
1235,1831;0,0506186
1236,1473;0,0507316
1237,1116;0,0508323
1238,0758;0,0509236
1239,0400;0,0510048
1240,0043;0,0510712
1240,9685;0,051116
1241,9327;0,0511331
1242,8970;0,0511193
1243,8612;0,0510754
1244,8254;0,0510042
1245,7897;0,0509082
1246,7539;0,0507876
1247,7181;0,0506406
1248,6824;0,0504671
1249,6466;0,0502716
1250,6108;0,0500643
1251,5751;0,0498587
1252,5393;0,049667
1253,5035;0,0494944
1254,4678;0,0493374
1255,4320;0,0491849
1256,3962;0,0490224
1257,3605;0,0488376
1258,3247;0,048624
1259,2889;0,0483823
1260,2532;0,0481181
1261,2174;0,0478383
1262,1816;0,047547
1263,1459;0,0472438
1264,1101;0,0469251
1265,0743;0,0465867
1266,0386;0,0462258
1267,0028;0,0458416
1267,9670;0,0454346
1268,9313;0,0450055
1269,8955;0,0445565
1270,8597;0,0440919
1271,8240;0,043619
1272,7882;0,0431467
1273,7524;0,0426845
1274,7167;0,0422404
1275,6809;0,04182
1276,6451;0,0414265
1277,6094;0,0410588
1278,5736;0,0407108
1279,5378;0,0403717
1280,5021;0,0400294
1281,4663;0,0396751
1282,4305;0,0393084
1283,3948;0,0389369
1284,3590;0,038573
1285,3232;0,0382286
1286,2875;0,0379117
1287,2517;0,037625
1288,2159;0,0373687
1289,1802;0,0371424
1290,1444;0,0369467
1291,1086;0,0367827
1292,0729;0,0366513
1293,0371;0,0365532
1294,0013;0,0364898
1294,9656;0,0364645
1295,9298;0,0364824
1296,8940;0,0365493
1297,8583;0,0366697
1298,8225;0,0368451
1299,7867;0,0370734
1300,7510;0,0373483
1301,7152;0,0376618
1302,6794;0,0380053
1303,6437;0,0383716
1304,6079;0,0387578
1305,5721;0,0391639
1306,5364;0,0395911
1307,5006;0,040039
1308,4648;0,0405044
1309,4291;0,0409808
1310,3933;0,0414585
1311,3575;0,0419254
1312,3218;0,0423675
1313,2860;0,0427701
1314,2502;0,0431189
1315,2145;0,0433994
1316,1787;0,0435967
1317,1429;0,0436964
1318,1072;0,0436906
1319,0714;0,0435863
1320,0356;0,0434078
1320,9999;0,0431906
1321,9641;0,0429679
1322,9283;0,0427614
1323,8926;0,0425801
1324,8568;0,0424241
1325,8210;0,0422898
1326,7853;0,0421731
1327,7495;0,04207
1328,7137;0,0419751
1329,6780;0,0418806
1330,6422;0,0417776
1331,6064;0,0416587
1332,5707;0,0415213
1333,5349;0,041367
1334,4991;0,0411971
1335,4634;0,041005
1336,4276;0,0407715
1337,3918;0,0404679
1338,3561;0,0400739
1339,3203;0,0396037
1340,2845;0,0391125
1341,2488;0,0386655
1342,2130;0,0382992
1343,1772;0,038014
1344,1415;0,0377927
1345,1057;0,0376195
1346,0699;0,0374889
