TITLE;
DATA TYPE;INFRARED SPECTRUM
ORIGIN;JASCO
OWNER;
DATE;25/03/19
TIME;18:15:51
SPECTROMETER/DATA SYSTEM;
LOCALE;9226
RESOLUTION;
DELTAX;0,964233
XUNITS;1/CM
YUNITS;ABSORBANCE
FIRSTX;  399,1927
LASTX; 4000,6047
NPOINTS;    3736
FIRSTY;     0,15585
MAXY;     0,15742
MINY;     0,00499
XYDATA
399,1927;0,155846
400,1569;0,152155
401,1211;0,149569
402,0854;0,147727
403,0496;0,146078
404,0138;0,144235
404,9781;0,142103
405,9423;0,139875
406,9065;0,137915
407,8708;0,136553
408,8350;0,135933
409,7992;0,135984
410,7635;0,136504
411,7277;0,137274
412,6919;0,138143
413,6562;0,139057
414,6204;0,140015
415,5846;0,140994
416,5489;0,14189
417,5131;0,142493
418,4773;0,142639
419,4416;0,142472
420,4058;0,142417
421,3700;0,14274
422,3343;0,143343
423,2985;0,143922
424,2627;0,144144
425,2270;0,143793
426,1912;0,142858
427,1554;0,14154
428,1197;0,14014
429,0839;0,138936
430,0481;0,138121
431,0124;0,137783
431,9766;0,137894
432,9408;0,138302
433,9051;0,138752
434,8693;0,138973
435,8335;0,138797
436,7978;0,138249
437,7620;0,137519
438,7262;0,136842
439,6905;0,13637
440,6547;0,136127
441,6189;0,136041
442,5832;0,13601
443,5474;0,135973
444,5116;0,135925
445,4759;0,135884
446,4401;0,135852
447,4043;0,135805
448,3686;0,135707
449,3328;0,135544
450,2970;0,135331
451,2613;0,135105
452,2255;0,134905
453,1897;0,134757
454,1540;0,134661
455,1182;0,134599
456,0824;0,134532
457,0467;0,134413
458,0109;0,134204
458,9751;0,133893
459,9394;0,133483
460,9036;0,132973
461,8678;0,132345
462,8321;0,131595
463,7963;0,130771
464,7605;0,130006
465,7248;0,129493
466,6890;0,129398
467,6532;0,129771
468,6175;0,130515
469,5817;0,131426
470,5459;0,132269
471,5102;0,132857
472,4744;0,133116
473,4386;0,133091
474,4029;0,132886
475,3671;0,132586
476,3313;0,132242
477,2956;0,131896
478,2598;0,131615
479,2240;0,131476
480,1883;0,131533
481,1525;0,131774
482,1167;0,132124
483,0810;0,132486
484,0452;0,132797
485,0094;0,133056
485,9737;0,133308
486,9379;0,133592
487,9021;0,133906
488,8664;0,134211
489,8306;0,134459
490,7948;0,13462
491,7591;0,134696
492,7233;0,13471
493,6875;0,134691
494,6518;0,134662
495,6160;0,134644
496,5802;0,134669
497,5445;0,134779
498,5087;0,135009
499,4729;0,135367
500,4372;0,135817
501,4014;0,136273
502,3656;0,136636
503,3299;0,136833
504,2941;0,136855
505,2583;0,136749
506,2226;0,136593
507,1868;0,136461
508,1510;0,136404
509,1153;0,136442
510,0795;0,136579
511,0437;0,136824
512,0080;0,137207
512,9722;0,137764
513,9365;0,138512
514,9007;0,139406
515,8649;0,140307
516,8292;0,141004
517,7934;0,141291
518,7576;0,141098
519,7219;0,140539
520,6861;0,139849
521,6503;0,139251
522,6146;0,138864
523,5788;0,138695
524,5430;0,138668
525,5073;0,138673
526,4715;0,138619
527,4357;0,138471
528,4000;0,138236
529,3642;0,13793
530,3284;0,137563
531,2927;0,137149
532,2569;0,136724
533,2211;0,136356
534,1854;0,136113
535,1496;0,136028
536,1138;0,136065
537,0781;0,136138
538,0423;0,136159
539,0065;0,136093
539,9708;0,135982
540,9350;0,135924
541,8992;0,13602
542,8635;0,136317
543,8277;0,136788
544,7919;0,137342
545,7562;0,137868
546,7204;0,138281
547,6846;0,138558
548,6489;0,138737
549,6131;0,138884
550,5773;0,139058
551,5416;0,139283
552,5058;0,139551
553,4700;0,139835
554,4343;0,140106
555,3985;0,140336
556,3627;0,140486
557,3270;0,140506
558,2912;0,140337
559,2554;0,139934
560,2197;0,139289
561,1839;0,138445
562,1481;0,137483
563,1124;0,136494
564,0766;0,135551
565,0408;0,134694
566,0051;0,133936
566,9693;0,133277
567,9335;0,13272
568,8978;0,132267
569,8620;0,131909
570,8262;0,131627
571,7905;0,131392
572,7547;0,131176
573,7189;0,130962
574,6832;0,13075
575,6474;0,130549
576,6116;0,130374
577,5759;0,130232
578,5401;0,130122
579,5043;0,130033
580,4686;0,129945
581,4328;0,129835
582,3970;0,129682
583,3613;0,129475
584,3255;0,129222
585,2897;0,128957
586,2540;0,128733
587,2182;0,128612
588,1824;0,12863
589,1467;0,128779
590,1109;0,128992
591,0751;0,129161
592,0394;0,129178
593,0036;0,12899
593,9678;0,128622
594,9321;0,128163
595,8963;0,127712
596,8605;0,127335
597,8248;0,127051
598,7890;0,126832
599,7532;0,126634
600,7175;0,126412
601,6817;0,126141
602,6459;0,125814
603,6102;0,125443
604,5744;0,125054
605,5386;0,124685
606,5029;0,124364
607,4671;0,124098
608,4313;0,123862
609,3956;0,123609
610,3598;0,123307
611,3240;0,122962
612,2883;0,12262
613,2525;0,122334
614,2167;0,12212
615,1810;0,121924
616,1452;0,121632
617,1094;0,121124
618,0737;0,120352
619,0379;0,119372
620,0021;0,118316
620,9664;0,117321
621,9306;0,116471
622,8948;0,115785
623,8591;0,115226
624,8233;0,114715
625,7875;0,114232
626,7518;0,113748
627,7160;0,11326
628,6802;0,11278
629,6445;0,112325
630,6087;0,111903
631,5729;0,111513
632,5372;0,111147
633,5014;0,110789
634,4656;0,110427
635,4299;0,110059
636,3941;0,109692
637,3583;0,10934
638,3226;0,10901
639,2868;0,108702
640,2510;0,108405
641,2153;0,108108
642,1795;0,107811
643,1437;0,10753
644,1080;0,107291
645,0722;0,107112
646,0364;0,106989
647,0007;0,106889
647,9649;0,106761
648,9291;0,106566
649,8934;0,106302
650,8576;0,106016
651,8218;0,105783
652,7861;0,105676
653,7503;0,10573
654,7145;0,105931
655,6788;0,106221
656,6430;0,106531
657,6072;0,106811
658,5715;0,107043
659,5357;0,107208
660,4999;0,107258
661,4642;0,10711
662,4284;0,106689
663,3926;0,105956
664,3569;0,104945
665,3211;0,103813
666,2853;0,102869
667,2496;0,102446
668,2138;0,102497
669,1780;0,102497
670,1423;0,102121
671,1065;0,101435
672,0707;0,10053
673,0350;0,0994508
673,9992;0,0982802
674,9634;0,097138
675,9277;0,0961125
676,8919;0,0952055
677,8561;0,0943527
678,8204;0,0934953
679,7846;0,0926352
680,7488;0,0918275
681,7131;0,0911353
682,6773;0,0905822
683,6415;0,0901438
684,6058;0,0897712
685,5700;0,0894235
686,5342;0,0890828
687,4985;0,0887502
688,4627;0,0884359
689,4269;0,0881428
690,3912;0,0878698
691,3554;0,087614
692,3196;0,0873722
693,2839;0,0871413
694,2481;0,0869183
695,2123;0,0866994
696,1766;0,0864781
697,1408;0,0862437
698,1050;0,0859823
699,0693;0,0856829
700,0335;0,0853442
700,9977;0,0849772
701,9620;0,0846017
702,9262;0,084236
703,8904;0,0838802
704,8547;0,0835269
705,8189;0,0831585
706,7831;0,0827591
707,7474;0,0823253
708,7116;0,0818667
709,6758;0,0813975
710,6401;0,0809234
711,6043;0,0804354
712,5685;0,0799164
713,5328;0,0793591
714,4970;0,0787797
715,4612;0,0778435
716,4255;0,0774142
717,3897;0,0770818
718,3539;0,0767907
719,3182;0,0764362
720,2824;0,0759154
721,2466;0,0751878
722,2109;0,0743009
723,1751;0,0733602
724,1393;0,0724719
725,1036;0,0716982
726,0678;0,0710453
727,0320;0,0704784
727,9963;0,0699504
728,9605;0,0694288
729,9247;0,0689066
730,8890;0,0683954
731,8532;0,0679093
732,8174;0,0674507
733,7817;0,0670099
734,7459;0,0665746
735,7101;0,0661428
736,6744;0,0657284
737,6386;0,0653541
738,6028;0,0650367
739,5671;0,0647746
740,5313;0,0645452
741,4955;0,0643143
742,4598;0,0640504
743,4240;0,0637359
744,3882;0,0633708
745,3525;0,0629696
746,3167;0,0625554
747,2809;0,0621547
748,2452;0,0617917
749,2094;0,0614824
750,1736;0,0612278
751,1379;0,0610122
752,1021;0,0608067
753,0663;0,0605794
754,0306;0,0603072
754,9948;0,0599844
755,9590;0,0596239
756,9233;0,0592516
757,8875;0,0588966
758,8517;0,0585801
759,8160;0,058309
760,7802;0,0580737
761,7444;0,0578539
762,7087;0,0576284
763,6729;0,0573849
764,6371;0,0571248
765,6014;0,0568612
766,5656;0,0566102
767,5298;0,0563831
768,4941;0,0561819
769,4583;0,0559996
770,4225;0,0558253
771,3868;0,0556476
772,3510;0,0554587
773,3152;0,0552557
774,2795;0,0550425
775,2437;0,0548286
776,2079;0,0546262
777,1722;0,0544443
778,1364;0,0542826
779,1006;0,0541309
780,0649;0,0539735
781,0291;0,0537963
781,9933;0,0535929
782,9576;0,0533646
783,9218;0,0531169
784,8860;0,0528567
785,8503;0,0525916
786,8145;0,0523324
787,7787;0,0520926
788,7430;0,0518843
789,7072;0,0517105
790,6714;0,0515623
791,6357;0,0514218
792,5999;0,0512729
793,5641;0,0511093
794,5284;0,0509374
795,4926;0,050769
796,4568;0,050612
797,4211;0,0504642
798,3853;0,0503154
799,3495;0,0501547
800,3138;0,0499782
801,2780;0,0497915
802,2422;0,049607
803,2065;0,0494388
804,1707;0,0492978
805,1349;0,0491886
806,0992;0,0491074
807,0634;0,0490433
808,0276;0,0489803
808,9919;0,0489029
809,9561;0,0488024
810,9203;0,0486809
811,8846;0,0485504
812,8488;0,0484271
813,8130;0,0483235
814,7773;0,0482435
815,7415;0,0481813
816,7057;0,0481267
817,6700;0,0480701
818,6342;0,0480067
819,5984;0,0479361
820,5627;0,0478599
821,5269;0,047779
822,4911;0,0476941
823,4554;0,0476059
824,4196;0,047516
825,3839;0,0474248
826,3481;0,0473293
827,3123;0,0472232
828,2766;0,0470997
829,2408;0,0469573
830,2050;0,0468022
831,1693;0,0466451
832,1335;0,0464949
833,0977;0,0463526
834,0620;0,0462107
835,0262;0,0460598
835,9904;0,0458958
836,9547;0,0457231
837,9189;0,0455505
838,8831;0,0453836
839,8474;0,0452214
840,8116;0,0450588
841,7758;0,0448931
842,7401;0,0447297
843,7043;0,0445801
844,6685;0,0444549
845,6328;0,0443564
846,5970;0,0442769
847,5612;0,0442022
848,5255;0,0441192
849,4897;0,0440203
850,4539;0,0439049
851,4182;0,0437774
852,3824;0,0436448
853,3466;0,0435143
854,3109;0,0433913
855,2751;0,0432776
856,2393;0,0431708
857,2036;0,0430668
858,1678;0,0429637
859,1320;0,0428652
860,0963;0,0427789
861,0605;0,0427108
862,0247;0,0426599
862,9890;0,0426182
863,9532;0,0425768
864,9174;0,0425346
865,8817;0,0425028
866,8459;0,0425009
867,8101;0,042547
868,7744;0,0426484
869,7386;0,0427982
870,7028;0,04298
871,6671;0,043175
872,6313;0,0433679
873,5955;0,043549
874,5598;0,0437133
875,5240;0,043861
876,4882;0,0439982
877,4525;0,0441383
878,4167;0,0442999
879,3809;0,0445019
880,3452;0,0447569
881,3094;0,0450691
882,2736;0,0454349
883,2379;0,0458487
884,2021;0,0463082
885,1663;0,046816
886,1306;0,047377
887,0948;0,0479933
888,0590;0,0486592
889,0233;0,0493593
889,9875;0,0500699
890,9517;0,0507618
891,9160;0,0514043
892,8802;0,0519692
893,8444;0,0524341
894,8087;0,0527848
895,7729;0,053017
896,7371;0,0531345
897,7014;0,0531452
898,6656;0,0530562
899,6298;0,0528713
900,5941;0,0525924
901,5583;0,052225
902,5225;0,0517838
903,4868;0,0512946
904,4510;0,050791
905,4152;0,050307
906,3795;0,0498683
907,3437;0,0494876
908,3079;0,0491648
909,2722;0,0488916
910,2364;0,0486579
911,2007;0,0484581
912,1649;0,0482932
913,1292;0,0481696
914,0934;0,0480945
915,0576;0,0480703
916,0219;0,0480925
916,9861;0,0481506
917,9503;0,0482331
918,9146;0,0483326
919,8788;0,0484477
920,8430;0,0485804
921,8073;0,0487313
922,7715;0,0488955
923,7357;0,0490621
924,7000;0,0492184
925,6642;0,0493558
926,6284;0,0494732
927,5927;0,0495775
928,5569;0,0496801
929,5211;0,0497917
930,4854;0,0499193
931,4496;0,0500652
932,4138;0,0502287
933,3781;0,0504093
934,3423;0,0506102
935,3065;0,0508392
936,2708;0,0511091
937,2350;0,0514334
938,1992;0,0518227
939,1635;0,0522804
940,1277;0,0528019
941,0919;0,0533769
942,0562;0,053995
943,0204;0,0546506
943,9846;0,0553452
944,9489;0,0560852
945,9131;0,0568762
946,8773;0,0577171
947,8416;0,0585986
948,8058;0,059506
949,7700;0,0604256
950,7343;0,0613521
951,6985;0,0622909
952,6627;0,0632556
953,6270;0,0642613
954,5912;0,0653185
955,5554;0,0664296
956,5197;0,0675907
957,4839;0,0687942
958,4481;0,0700329
959,4124;0,0713011
960,3766;0,0725945
961,3408;0,0739105
962,3051;0,0752487
963,2693;0,0766123
964,2335;0,0780071
965,1978;0,0794389
966,1620;0,0809098
967,1262;0,0824166
968,0905;0,0839542
969,0547;0,0855229
970,0189;0,0871363
970,9832;0,0888242
971,9474;0,0906285
972,9116;0,0925905
973,8759;0,0947377
974,8401;0,0970737
975,8043;0,0995773
976,7686;0,102208
977,7328;0,104916
978,6970;0,107648
979,6613;0,110352
980,6255;0,112967
981,5897;0,115428
982,5540;0,117668
983,5182;0,119634
984,4824;0,121299
985,4467;0,122681
986,4109;0,123833
987,3751;0,124828
988,3394;0,125742
989,3036;0,126622
990,2678;0,127486
991,2321;0,128319
992,1963;0,129096
993,1605;0,129792
994,1248;0,130399
995,0890;0,130925
996,0532;0,131388
997,0175;0,131804
997,9817;0,132181
998,9459;0,132524
999,9102;0,132843
1000,8744;0,133164
1001,8386;0,13353
1002,8029;0,133987
1003,7671;0,134571
1004,7313;0,135294
1005,6956;0,136146
1006,6598;0,137109
1007,6240;0,138167
1008,5883;0,139311
1009,5525;0,140536
1010,5167;0,141824
1011,4810;0,143146
1012,4452;0,144461
1013,4094;0,145735
1014,3737;0,146949
1015,3379;0,148098
1016,3021;0,149185
1017,2664;0,150207
1018,2306;0,151158
1019,1948;0,152028
1020,1591;0,152816
1021,1233;0,153532
1022,0875;0,154196
1023,0518;0,154821
1024,0160;0,155413
1024,9802;0,155962
1025,9445;0,156449
1026,9087;0,156858
1027,8729;0,157171
1028,8372;0,15737
1029,8014;0,157422
1030,7656;0,15728
1031,7299;0,156887
1032,6941;0,15619
1033,6583;0,155171
1034,6226;0,153855
1035,5868;0,152316
1036,5510;0,150664
1037,5153;0,149023
1038,4795;0,147513
1039,4437;0,146227
1040,4080;0,145225
1041,3722;0,144522
1042,3364;0,144093
1043,3007;0,143879
1044,2649;0,143807
1045,2291;0,143805
1046,1934;0,143822
1047,1576;0,143826
1048,1218;0,143793
1049,0861;0,143695
1050,0503;0,143493
1051,0145;0,143145
1051,9788;0,142625
1052,9430;0,141933
1053,9072;0,141086
1054,8715;0,140105
1055,8357;0,138985
1056,7999;0,137693
1057,7642;0,136175
1058,7284;0,134384
1059,6926;0,132306
1060,6569;0,129975
1061,6211;0,127476
1062,5853;0,124917
1063,5496;0,12241
1064,5138;0,120044
1065,4780;0,117866
1066,4423;0,115884
1067,4065;0,114072
1068,3707;0,112391
1069,3350;0,110803
1070,2992;0,109284
1071,2634;0,107824
1072,2277;0,10641
1073,1919;0,105024
1074,1561;0,103635
1075,1204;0,102215
1076,0846;0,100751
1077,0488;0,0992595
1078,0131;0,0977859
1078,9773;0,0963904
1079,9415;0,0951302
1080,9058;0,0940431
1081,8700;0,0931408
1082,8342;0,0924125
1083,7985;0,091834
1084,7627;0,0913775
1085,7269;0,0910189
1086,6912;0,0907405
1087,6554;0,0905311
1088,6196;0,0903847
1089,5839;0,0902985
1090,5481;0,090271
1091,5123;0,0903008
1092,4766;0,0903859
1093,4408;0,0905237
1094,4050;0,0907106
1095,3693;0,0909395
1096,3335;0,0911979
1097,2977;0,0914678
1098,2620;0,0917266
1099,2262;0,0919519
1100,1904;0,0921254
1101,1547;0,092236
1102,1189;0,0922791
1103,0831;0,092256
1104,0474;0,092172
1105,0116;0,0920359
1105,9758;0,0918578
1106,9401;0,0916449
1107,9043;0,0913936
1108,8685;0,0910812
1109,8328;0,090664
1110,7970;0,0900855
1111,7612;0,0892957
1112,7255;0,0882743
1113,6897;0,0870469
1114,6539;0,0856842
1115,6182;0,0842836
1116,5824;0,0829386
1117,5466;0,0817113
1118,5109;0,0806177
1119,4751;0,0796293
1120,4393;0,0786894
1121,4036;0,0777328
1122,3678;0,0767033
1123,3320;0,0755635
1124,2963;0,0742979
1125,2605;0,0729102
1126,2247;0,0714194
1127,1890;0,0698541
1128,1532;0,0682468
1129,1174;0,0666294
1130,0817;0,0650289
1131,0459;0,0634674
1132,0101;0,0619637
1132,9744;0,0605372
1133,9386;0,0592118
1134,9028;0,0580167
1135,8671;0,0569837
1136,8313;0,0561421
1137,7955;0,0555114
1138,7598;0,0550965
1139,7240;0,0548869
1140,6882;0,0548599
1141,6525;0,0549863
1142,6167;0,0552354
1143,5809;0,0555781
1144,5452;0,0559875
1145,5094;0,0564402
1146,4736;0,0569186
1147,4379;0,057413
1148,4021;0,0579231
1149,3663;0,0584538
1150,3306;0,059008
1151,2948;0,0595781
1152,2590;0,0601442
1153,2233;0,0606776
1154,1875;0,0611491
1155,1517;0,0615348
1156,1160;0,061815
1157,0802;0,0619657
1158,0444;0,0619502
1159,0087;0,0617153
1159,9729;0,0611991
1160,9371;0,0603469
1161,9014;0,0591283
1162,8656;0,0575489
1163,8298;0,0556524
1164,7941;0,0535124
1165,7583;0,0512207
1166,7225;0,0488752
1167,6868;0,046569
1168,6510;0,0443811
1169,6152;0,0423688
1170,5795;0,0405638
1171,5437;0,038972
1172,5079;0,0375803
1173,4722;0,0363658
1174,4364;0,0353051
1175,4006;0,0343791
1176,3649;0,0335739
1177,3291;0,0328776
1178,2933;0,0322791
1179,2576;0,0317674
1180,2218;0,0313327
1181,1860;0,0309676
1182,1503;0,0306665
1183,1145;0,0304244
1184,0787;0,0302368
1185,0430;0,030101
1186,0072;0,0300179
1186,9714;0,0299919
1187,9357;0,0300294
1188,8999;0,030135
1189,8641;0,030309
1190,8284;0,0305479
1191,7926;0,0308464
1192,7568;0,0312
1193,7211;0,0316049
1194,6853;0,0320553
1195,6495;0,0325406
1196,6138;0,0330435
1197,5780;0,033543
1198,5422;0,0340196
1199,5065;0,0342246
1200,4707;0,0346526
1201,4349;0,0350437
1202,3992;0,0354
1203,3634;0,0357201
1204,3276;0,0359971
1205,2919;0,0362208
1206,2561;0,0363844
1207,2203;0,036491
1208,1846;0,036558
1209,1488;0,0366161
1210,1130;0,0367018
1211,0773;0,036848
1212,0415;0,037075
1213,0057;0,0373862
1213,9700;0,0377703
1214,9342;0,0382087
1215,8984;0,0386831
1216,8627;0,0391789
1217,8269;0,0396859
1218,7911;0,0401994
1219,7554;0,0407154
1220,7196;0,0412281
1221,6838;0,0417291
1222,6481;0,0422088
1223,6123;0,0426589
1224,5765;0,043076
1225,5408;0,0434624
1226,5050;0,0438243
1227,4692;0,0441675
1228,4335;0,0444932
1229,3977;0,0447971
1230,3619;0,0450718
1231,3262;0,0453113
1232,2904;0,0455142
1233,2546;0,0456828
1234,2189;0,0458204
1235,1831;0,0459279
1236,1473;0,0460041
1237,1116;0,046049
1238,0758;0,0460673
1239,0400;0,0460699
1240,0043;0,0460697
1240,9685;0,0460756
1241,9327;0,0460874
1242,8970;0,0460953
1243,8612;0,0460834
1244,8254;0,046037
1245,7897;0,0459483
1246,7539;0,0458191
1247,7181;0,0456594
1248,6824;0,0454828
1249,6466;0,0453015
1250,6108;0,0451232
1251,5751;0,0449513
1252,5393;0,0447874
1253,5035;0,0446346
1254,4678;0,0444979
1255,4320;0,0443815
1256,3962;0,0442843
1257,3605;0,0441962
1258,3247;0,0440994
1259,2889;0,0439748
1260,2532;0,0438098
1261,2174;0,0436049
1262,1816;0,0433718
1263,1459;0,0431277
1264,1101;0,0428865
1265,0743;0,0426541
1266,0386;0,0424273
1267,0028;0,0421969
1267,9670;0,0419512
1268,9313;0,0416793
1269,8955;0,041374
1270,8597;0,0410334
1271,8240;0,0406613
1272,7882;0,0402669
1273,7524;0,0398629
1274,7167;0,0394637
1275,6809;0,0390824
1276,6451;0,0387283
1277,6094;0,0384032
1278,5736;0,038099
1279,5378;0,0377997
1280,5021;0,0374872
1281,4663;0,0371507
1282,4305;0,0367926
1283,3948;0,0364292
1284,3590;0,0360839
1285,3232;0,0357785
1286,2875;0,0355257
1287,2517;0,0353273
1288,2159;0,0351774
1289,1802;0,0350684
1290,1444;0,0349954
1291,1086;0,0349585
1292,0729;0,0349617
1293,0371;0,0350117
1294,0013;0,0351162
1294,9656;0,0352818
1295,9298;0,0355118
1296,8940;0,035804
1297,8583;0,0361511
1298,8225;0,0365429
1299,7867;0,0369702
1300,7510;0,0374282
1301,7152;0,0379202
1302,6794;0,0384506
1303,6437;0,0390214
1304,6079;0,0396303
1305,5721;0,0402698
1306,5364;0,0409306
1307,5006;0,0416075
1308,4648;0,0423011
1309,4291;0,0430122
1310,3933;0,043733
1311,3575;0,0444397
1312,3218;0,0450952
1313,2860;0,0456617
1314,2502;0,0461142
1315,2145;0,0464436
1316,1787;0,0466471
1317,1429;0,0467171
1318,1072;0,0466401
1319,0714;0,0464123
1320,0356;0,0460565
1320,9999;0,045625
1321,9641;0,0451828
1322,9283;0,0447844
1323,8926;0,0444614
1324,8568;0,0442223
1325,8210;0,0440603
1326,7853;0,0439616
1327,7495;0,0439098
1328,7137;0,0438869
1329,6780;0,043871
1330,6422;0,0438392
1331,6064;0,0437761
1332,5707;0,0436809
1333,5349;0,0435736
1334,4991;0,0434846
1335,4634;0,0434352
1336,4276;0,0434135
1337,3918;0,0433534
1338,3561;0,0431463
1339,3203;0,0427067
1340,2845;0,0420521
1341,2488;0,0413025
1342,2130;0,0405963
1343,1772;0,0400184
1344,1415;0,0395921
1345,1057;0,0393046
1346,0699;0,0391294
1347,0342;0,0390383
1347,9984;0,039012
1348,9626;0,0390441
1349,9269;0,0391383
1350,8911;0,0392982
1351,8553;0,0395178
