TITLE;
DATA TYPE;INFRARED SPECTRUM
ORIGIN;JASCO
OWNER;
DATE;25/03/14
TIME;11:42:36
SPECTROMETER/DATA SYSTEM;
LOCALE;9226
RESOLUTION;
DELTAX;0,964233
XUNITS;1/CM
YUNITS;ABSORBANCE
FIRSTX;  399,1927
LASTX; 4000,6047
NPOINTS;    3736
FIRSTY;     0,15142
MAXY;     0,22475
MINY;     0,01318
XYDATA
399,1927;0,151419
400,1569;0,151235
401,1211;0,150665
402,0854;0,149996
403,0496;0,149355
404,0138;0,148803
404,9781;0,148403
405,9423;0,148237
406,9065;0,148375
407,8708;0,14883
408,8350;0,149541
409,7992;0,150388
410,7635;0,151235
411,7277;0,151987
412,6919;0,152627
413,6562;0,153209
414,6204;0,153806
415,5846;0,154457
416,5489;0,155134
417,5131;0,155737
418,4773;0,156156
419,4416;0,156409
420,4058;0,156654
421,3700;0,157001
422,3343;0,157397
423,2985;0,157686
424,2627;0,157722
425,2270;0,157469
426,1912;0,157044
427,1554;0,156669
428,1197;0,156539
429,0839;0,156717
430,0481;0,157123
431,0124;0,157591
431,9766;0,157969
432,9408;0,158177
433,9051;0,158209
434,8693;0,158079
435,8335;0,157779
436,7978;0,157282
437,7620;0,156592
438,7262;0,155786
439,6905;0,155005
440,6547;0,154413
441,6189;0,154123
442,5832;0,154131
443,5474;0,154296
444,5116;0,1544
445,4759;0,15426
446,4401;0,15382
447,4043;0,15315
448,3686;0,152408
449,3328;0,151771
450,2970;0,151388
451,2613;0,151321
452,2255;0,151526
453,1897;0,151865
454,1540;0,15217
455,1182;0,152297
456,0824;0,152176
457,0467;0,151829
458,0109;0,151365
458,9751;0,15091
459,9394;0,150531
460,9036;0,150215
461,8678;0,149905
462,8321;0,149545
463,7963;0,149108
464,7605;0,148599
465,7248;0,148052
466,6890;0,14753
467,6532;0,14711
468,6175;0,14687
469,5817;0,146862
470,5459;0,147091
471,5102;0,147485
472,4744;0,147913
473,4386;0,14825
474,4029;0,148456
475,3671;0,148588
476,3313;0,148736
477,2956;0,148948
478,2598;0,149189
479,2240;0,14936
480,1883;0,149357
481,1525;0,149155
482,1167;0,148857
483,0810;0,148668
484,0452;0,148801
485,0094;0,149341
485,9737;0,150184
486,9379;0,151096
487,9021;0,151844
488,8664;0,152303
489,8306;0,15249
490,7948;0,152535
491,7591;0,152612
492,7233;0,152847
493,6875;0,153271
494,6518;0,153823
495,6160;0,154404
496,5802;0,154933
497,5445;0,155376
498,5087;0,155737
499,4729;0,156038
500,4372;0,156306
501,4014;0,156567
502,3656;0,156849
503,3299;0,157191
504,2941;0,157624
505,2583;0,158157
506,2226;0,158754
507,1868;0,159343
508,1510;0,159845
509,1153;0,160223
510,0795;0,160507
511,0437;0,160777
512,0080;0,161121
512,9722;0,161577
513,9365;0,162122
514,9007;0,162693
515,8649;0,163221
516,8292;0,163669
517,7934;0,164043
518,7576;0,164366
519,7219;0,164653
520,6861;0,164902
521,6503;0,16511
522,6146;0,165294
523,5788;0,165494
524,5430;0,165755
525,5073;0,166094
526,4715;0,166477
527,4357;0,166825
528,4000;0,167051
529,3642;0,167096
530,3284;0,166948
531,2927;0,166642
532,2569;0,166251
533,2211;0,165875
534,1854;0,1656
535,1496;0,165465
536,1138;0,16544
537,0781;0,165447
538,0423;0,165399
539,0065;0,165258
539,9708;0,165048
540,9350;0,164846
541,8992;0,164742
542,8635;0,164796
543,8277;0,165017
544,7919;0,165371
545,7562;0,165799
546,7204;0,166237
547,6846;0,166639
548,6489;0,166979
549,6131;0,167258
550,5773;0,167493
551,5416;0,167721
552,5058;0,167985
553,4700;0,168335
554,4343;0,168801
555,3985;0,169381
556,3627;0,17002
557,3270;0,170603
558,2912;0,170983
559,2554;0,171026
560,2197;0,170667
561,1839;0,169938
562,1481;0,168966
563,1124;0,167922
564,0766;0,166962
565,0408;0,166178
566,0051;0,165588
566,9693;0,165159
567,9335;0,164835
568,8978;0,164566
569,8620;0,164327
570,8262;0,16412
571,7905;0,163964
572,7547;0,163877
573,7189;0,163861
574,6832;0,163888
575,6474;0,163899
576,6116;0,163836
577,5759;0,163671
578,5401;0,16343
579,5043;0,163178
580,4686;0,162983
581,4328;0,162879
582,3970;0,162846
583,3613;0,162831
584,3255;0,162786
585,2897;0,162696
586,2540;0,162586
587,2182;0,162501
588,1824;0,162468
589,1467;0,162484
590,1109;0,162507
591,0751;0,162483
592,0394;0,162366
593,0036;0,162141
593,9678;0,161835
594,9321;0,161494
595,8963;0,161159
596,8605;0,160851
597,8248;0,160559
598,7890;0,160256
599,7532;0,159917
600,7175;0,159532
601,6817;0,159114
602,6459;0,158683
603,6102;0,158257
604,5744;0,157846
605,5386;0,15746
606,5029;0,157105
607,4671;0,156786
608,4313;0,156491
609,3956;0,15619
610,3598;0,155849
611,3240;0,155449
612,2883;0,15501
613,2525;0,154575
614,2167;0,154178
615,1810;0,153808
616,1452;0,153396
617,1094;0,152843
618,0737;0,152075
619,0379;0,151086
620,0021;0,149938
620,9664;0,148716
621,9306;0,147496
622,8948;0,14633
623,8591;0,145255
624,8233;0,144275
625,7875;0,14347
626,7518;0,142838
627,7160;0,142343
628,6802;0,141916
629,6445;0,141488
630,6087;0,141011
631,5729;0,140477
632,5372;0,139913
633,5014;0,139362
634,4656;0,138859
635,4299;0,138419
636,3941;0,138034
637,3583;0,137686
638,3226;0,137361
639,2868;0,137054
640,2510;0,136772
641,2153;0,136521
642,1795;0,136301
643,1437;0,136106
644,1080;0,135927
645,0722;0,135758
646,0364;0,135597
647,0007;0,135444
647,9649;0,135295
648,9291;0,135142
649,8934;0,134978
650,8576;0,134802
651,8218;0,13463
652,7861;0,134496
653,7503;0,134443
654,7145;0,134507
655,6788;0,134689
656,6430;0,134952
657,6072;0,135228
658,5715;0,135443
659,5357;0,135529
660,4999;0,135431
661,4642;0,135104
662,4284;0,134503
663,3926;0,13358
664,3569;0,132331
665,3211;0,130906
666,2853;0,129694
667,2496;0,129163
668,2138;0,129328
669,1780;0,129601
670,1423;0,129601
671,1065;0,129312
672,0707;0,128681
673,0350;0,127647
673,9992;0,126272
674,9634;0,124734
675,9277;0,12322
676,8919;0,121829
677,8561;0,120547
678,8204;0,119316
679,7846;0,118106
680,7488;0,116943
681,7131;0,115874
682,6773;0,114925
683,6415;0,114081
684,6058;0,113316
685,5700;0,112612
686,5342;0,111966
687,4985;0,111381
688,4627;0,110852
689,4269;0,110354
690,3912;0,109868
691,3554;0,109394
692,3196;0,108948
693,2839;0,108549
694,2481;0,108203
695,2123;0,107894
696,1766;0,107588
697,1408;0,107246
698,1050;0,106842
699,0693;0,106372
700,0335;0,105861
700,9977;0,105351
701,9620;0,104881
702,9262;0,104468
703,8904;0,104089
704,8547;0,103709
705,8189;0,103292
706,7831;0,102819
707,7474;0,102298
708,7116;0,101754
709,6758;0,101213
710,6401;0,100689
711,6043;0,100176
712,5685;0,0996616
713,5328;0,099141
714,4970;0,098626
715,4612;0,0975127
716,4255;0,0972016
717,3897;0,0969675
718,3539;0,09672
719,3182;0,0963321
720,2824;0,0957057
721,2466;0,0948334
722,2109;0,0938073
723,1751;0,0927647
724,1393;0,0918175
725,1036;0,0910102
726,0678;0,0903225
727,0320;0,0896983
727,9963;0,0890821
728,9605;0,0884428
729,9247;0,0877783
730,8890;0,0871058
731,8532;0,0864479
732,8174;0,0858246
733,7817;0,0852498
734,7459;0,0847306
735,7101;0,0842672
736,6744;0,0838536
737,6386;0,0834789
738,6028;0,0831293
739,5671;0,0827903
740,5313;0,0824476
741,4955;0,082089
742,4598;0,0817062
743,4240;0,0812981
744,3882;0,080871
745,3525;0,0804371
746,3167;0,0800081
747,2809;0,0795893
748,2452;0,0791765
749,2094;0,0787577
750,1736;0,0783212
751,1379;0,0778629
752,1021;0,0773904
753,0663;0,0769199
754,0306;0,0764675
754,9948;0,0760416
755,9590;0,075639
756,9233;0,0752488
757,8875;0,0748601
758,8517;0,0744696
759,8160;0,0740828
760,7802;0,0737108
761,7444;0,0733633
762,7087;0,0730426
763,6729;0,0727431
764,6371;0,0724543
765,6014;0,0721665
766,5656;0,0718746
767,5298;0,0715794
768,4941;0,0712855
769,4583;0,0709973
770,4225;0,0707176
771,3868;0,0704464
772,3510;0,0701825
773,3152;0,0699236
774,2795;0,0696673
775,2437;0,0694105
776,2079;0,0691505
777,1722;0,068886
778,1364;0,0686181
779,1006;0,0683498
780,0649;0,0680834
781,0291;0,0678187
781,9933;0,0675533
782,9576;0,0672844
783,9218;0,0670115
784,8860;0,0667366
785,8503;0,0664629
786,8145;0,0661925
787,7787;0,0659262
788,7430;0,0656665
789,7072;0,0654206
790,6714;0,065201
791,6357;0,0650199
792,5999;0,0648826
793,5641;0,0647828
794,5284;0,0647045
795,4926;0,0646291
796,4568;0,0645443
797,4211;0,0644468
798,3853;0,0643391
799,3495;0,064224
800,3138;0,064101
801,2780;0,0639689
802,2422;0,0638325
803,2065;0,0637049
804,1707;0,0636031
805,1349;0,0635376
806,0992;0,0635027
807,0634;0,0634764
808,0276;0,0634302
808,9919;0,0633446
809,9561;0,0632191
810,9203;0,0630713
811,8846;0,0629254
812,8488;0,0627988
813,8130;0,0626954
814,7773;0,0626077
815,7415;0,0625251
816,7057;0,0624408
817,6700;0,0623525
818,6342;0,0622605
819,5984;0,0621648
820,5627;0,0620667
821,5269;0,0619713
822,4911;0,0618872
823,4554;0,0618226
824,4196;0,0617782
825,3839;0,0617446
826,3481;0,0617066
827,3123;0,0616516
828,2766;0,0615769
829,2408;0,0614898
830,2050;0,061401
831,1693;0,0613149
832,1335;0,0612251
833,0977;0,0611176
834,0620;0,0609778
835,0262;0,0607984
835,9904;0,0605822
836,9547;0,0603399
837,9189;0,0600853
838,8831;0,0598305
839,8474;0,0595835
840,8116;0,0593486
841,7758;0,0591285
842,7401;0,0589274
843,7043;0,0587517
844,6685;0,0586073
845,6328;0,058494
846,5970;0,0584009
847,5612;0,0583074
848,5255;0,0581912
849,4897;0,0580409
850,4539;0,057865
851,4182;0,0576898
852,3824;0,0575472
853,3466;0,0574571
854,3109;0,057416
855,2751;0,0573979
856,2393;0,0573674
857,2036;0,0572983
858,1678;0,0571868
859,1320;0,0570538
860,0963;0,0569347
861,0605;0,0568636
862,0247;0,0568584
862,9890;0,0569141
863,9532;0,0570079
864,9174;0,0571116
865,8817;0,0572056
866,8459;0,0572869
867,8101;0,0573663
868,7744;0,057459
869,7386;0,0575745
870,7028;0,0577124
871,6671;0,0578657
872,6313;0,058027
873,5955;0,0581922
874,5598;0,058358
875,5240;0,058519
876,4882;0,0586665
877,4525;0,0587954
878,4167;0,0589126
879,3809;0,0590403
880,3452;0,0592108
881,3094;0,059453
882,2736;0,0597818
883,2379;0,0601951
884,2021;0,0606817
885,1663;0,0612331
886,1306;0,0618495
887,0948;0,0625373
888,0590;0,0632988
889,0233;0,0641235
889,9875;0,0649863
890,9517;0,0658538
891,9160;0,0666912
892,8802;0,067468
893,8444;0,0681572
894,8087;0,0687319
895,7729;0,0691645
896,7371;0,0694286
897,7014;0,0695051
898,6656;0,0693869
899,6298;0,069082
900,5941;0,0686123
901,5583;0,0680106
902,5225;0,0673164
903,4868;0,0665728
904,4510;0,0658222
905,4152;0,0651027
906,3795;0,0644457
907,3437;0,063873
908,3079;0,0633961
909,2722;0,0630168
910,2364;0,0627287
911,2007;0,0625198
912,1649;0,0623766
913,1292;0,0622884
914,0934;0,062249
915,0576;0,0622577
916,0219;0,0623147
916,9861;0,0624174
917,9503;0,0625565
918,9146;0,0627171
919,8788;0,0628827
920,8430;0,0630419
921,8073;0,0631921
922,7715;0,063338
923,7357;0,0634863
924,7000;0,0636393
925,6642;0,0637922
926,6284;0,063937
927,5927;0,0640687
928,5569;0,0641916
929,5211;0,0643187
930,4854;0,0644651
931,4496;0,0646394
932,4138;0,0648385
933,3781;0,0650501
934,3423;0,0652623
935,3065;0,0654739
936,2708;0,0656984
937,2350;0,0659596
938,1992;0,066281
939,1635;0,0666756
940,1277;0,0671415
941,0919;0,0676668
942,0562;0,0682381
943,0204;0,0688499
943,9846;0,0695074
944,9489;0,0702236
945,9131;0,0710122
946,8773;0,0718814
947,8416;0,0728299
948,8058;0,0738488
949,7700;0,0749264
950,7343;0,0760531
951,6985;0,0772251
952,6627;0,0784446
953,6270;0,0797163
954,5912;0,0810441
955,5554;0,0824271
956,5197;0,0838602
957,4839;0,0853361
958,4481;0,0868486
959,4124;0,0883938
960,3766;0,0899699
961,3408;0,0915736
962,3051;0,0931992
963,2693;0,0948392
964,2335;0,0964868
965,1978;0,09814
966,1620;0,0998025
967,1262;0,101484
968,0905;0,103199
969,0547;0,104964
970,0189;0,1068
970,9832;0,108734
971,9474;0,110793
972,9116;0,113009
973,8759;0,115408
974,8401;0,118014
975,8043;0,120839
976,7686;0,123887
977,7328;0,127148
978,6970;0,130592
979,6613;0,134166
980,6255;0,13779
981,5897;0,141361
982,5540;0,144768
983,5182;0,147912
984,4824;0,150723
985,4467;0,153179
986,4109;0,155298
987,3751;0,15713
988,3394;0,158733
989,3036;0,160163
990,2678;0,161457
991,2321;0,162639
992,1963;0,163721
993,1605;0,16471
994,1248;0,165617
995,0890;0,166458
996,0532;0,167258
997,0175;0,168046
997,9817;0,168854
998,9459;0,169701
999,9102;0,170598
1000,8744;0,171544
1001,8386;0,172531
1002,8029;0,17356
1003,7671;0,174647
1004,7313;0,175821
1005,6956;0,177124
1006,6598;0,178597
1007,6240;0,180274
1008,5883;0,182171
1009,5525;0,184288
1010,5167;0,186603
1011,4810;0,189075
1012,4452;0,191649
1013,4094;0,194261
1014,3737;0,196853
1015,3379;0,199375
1016,3021;0,201791
1017,2664;0,204081
1018,2306;0,206234
1019,1948;0,208247
1020,1591;0,210129
1021,1233;0,211894
1022,0875;0,213566
1023,0518;0,21517
1024,0160;0,216727
1024,9802;0,218244
1025,9445;0,219711
1026,9087;0,221098
1027,8729;0,222358
1028,8372;0,223429
1029,8014;0,224238
1030,7656;0,224704
1031,7299;0,224752
1032,6941;0,22432
1033,6583;0,223381
1034,6226;0,221957
1035,5868;0,220128
1036,5510;0,218026
1037,5153;0,215817
1038,4795;0,213671
1039,4437;0,211737
1040,4080;0,210116
1041,3722;0,208855
1042,3364;0,207945
1043,3007;0,207329
1044,2649;0,20692
1045,2291;0,206614
1046,1934;0,206316
1047,1576;0,20595
1048,1218;0,205464
1049,0861;0,20483
1050,0503;0,204027
1051,0145;0,203039
1051,9788;0,201851
1052,9430;0,200452
1053,9072;0,198845
1054,8715;0,197042
1055,8357;0,195051
1056,7999;0,192859
1057,7642;0,190428
1058,7284;0,187703
1059,6926;0,184648
1060,6569;0,18127
1061,6211;0,177645
1062,5853;0,173904
1063,5496;0,170201
1064,5138;0,166676
1065,4780;0,163416
1066,4423;0,160453
1067,4065;0,157772
1068,3707;0,155327
1069,3350;0,15307
1070,2992;0,150958
1071,2634;0,148955
1072,2277;0,147032
1073,1919;0,145162
1074,1561;0,143318
1075,1204;0,141477
1076,0846;0,139623
1077,0488;0,137755
1078,0131;0,13589
1078,9773;0,134062
1079,9415;0,132315
1080,9058;0,1307
1081,8700;0,129257
1082,8342;0,128006
1083,7985;0,126945
1084,7627;0,126054
1085,7269;0,125298
1086,6912;0,124647
1087,6554;0,124074
1088,6196;0,123567
1089,5839;0,123123
1090,5481;0,122749
1091,5123;0,122454
1092,4766;0,122247
1093,4408;0,122133
1094,4050;0,122113
1095,3693;0,122183
1096,3335;0,122333
1097,2977;0,122553
1098,2620;0,122829
1099,2262;0,123148
1100,1904;0,123492
1101,1547;0,123837
1102,1189;0,124154
1103,0831;0,124406
1104,0474;0,12456
1105,0116;0,12459
1105,9758;0,12449
1106,9401;0,124265
1107,9043;0,123929
1108,8685;0,123487
1109,8328;0,122922
1110,7970;0,1222
1111,7612;0,121286
1112,7255;0,120163
1113,6897;0,118858
1114,6539;0,117441
1115,6182;0,116006
1116,5824;0,114642
1117,5466;0,113406
1118,5109;0,112307
1119,4751;0,11131
1120,4393;0,110349
1121,4036;0,109347
1122,3678;0,108227
1123,3320;0,106929
1124,2963;0,105417
1125,2605;0,103685
1126,2247;0,101756
1127,1890;0,0996745
1128,1532;0,0974927
1129,1174;0,0952584
1130,0817;0,0930104
1131,0459;0,0907796
1132,0101;0,0885954
1132,9744;0,0864907
1133,9386;0,084503
1134,9028;0,0826717
1135,8671;0,0810333
1136,8313;0,0796175
1137,7955;0,0784441
1138,7598;0,0775215
1139,7240;0,0768453
1140,6882;0,0763987
1141,6525;0,0761559
1142,6167;0,0760864
1143,5809;0,0761606
1144,5452;0,0763523
1145,5094;0,076641
1146,4736;0,0770118
1147,4379;0,0774554
1148,4021;0,0779678
1149,3663;0,0785477
1150,3306;0,0791916
1151,2948;0,0798873
1152,2590;0,0806105
1153,2233;0,0813261
1154,1875;0,0819923
1155,1517;0,0825663
1156,1160;0,0830052
1157,0802;0,0832634
1158,0444;0,0832889
1159,0087;0,0830233
1159,9729;0,0824087
1160,9371;0,0813986
1161,9014;0,0799702
1162,8656;0,0781316
1163,8298;0,0759228
1164,7941;0,0734118
1165,7583;0,0706871
1166,7225;0,0678493
1167,6868;0,0650018
1168,6510;0,0622406
1169,6152;0,0596445
1170,5795;0,0572673
1171,5437;0,0551349
1172,5079;0,0532488
1173,4722;0,0515936
1174,4364;0,0501462
1175,4006;0,0488853
1176,3649;0,0477959
1177,3291;0,0468696
1178,2933;0,0461
1179,2576;0,045476
1180,2218;0,0449778
1181,1860;0,0445783
1182,1503;0,0442504
1183,1145;0,0439762
1184,0787;0,0437521
1185,0430;0,0435866
1186,0072;0,0434931
1186,9714;0,0434803
1187,9357;0,043549
1188,8999;0,0436931
1189,8641;0,0439062
1190,8284;0,0441858
1191,7926;0,0445353
1192,7568;0,0449602
1193,7211;0,0454629
1194,6853;0,0460393
1195,6495;0,0466772
1196,6138;0,0473584
1197,5780;0,0480625
1198,5422;0,0487703
1199,5065;0,0493683
1200,4707;0,0500624
1201,4349;0,0507411
1202,3992;0,0514068
1203,3634;0,0520604
1204,3276;0,0526984
1205,2919;0,0533146
1206,2561;0,0539041
1207,2203;0,0544694
1208,1846;0,0550236
1209,1488;0,0555895
1210,1130;0,0561926
1211,0773;0,0568547
1212,0415;0,057587
1213,0057;0,0583888
1213,9700;0,0592492
1214,9342;0,0601516
1215,8984;0,0610775
1216,8627;0,0620083
1217,8269;0,0629271
1218,7911;0,0638211
1219,7554;0,0646824
1220,7196;0,0655062
1221,6838;0,0662882
1222,6481;0,0670224
1223,6123;0,0677004
1224,5765;0,0683145
1225,5408;0,0688624
1226,5050;0,0693496
1227,4692;0,0697875
1228,4335;0,0701878
1229,3977;0,0705565
1230,3619;0,0708918
1231,3262;0,0711869
1232,2904;0,0714344
1233,2546;0,0716321
1234,2189;0,0717828
1235,1831;0,0718932
1236,1473;0,0719697
1237,1116;0,0720173
1238,0758;0,0720393
1239,0400;0,0720394
1240,0043;0,0720216
1240,9685;0,0719886
1241,9327;0,071939
1242,8970;0,0718651
1243,8612;0,0717536
1244,8254;0,0715904
1245,7897;0,0713668
1246,7539;0,0710845
1247,7181;0,0707557
1248,6824;0,0703992
1249,6466;0,0700329
1250,6108;0,0696695
1251,5751;0,0693152
1252,5393;0,0689725
1253,5035;0,0686436
1254,4678;0,0683302
1255,4320;0,0680316
1256,3962;0,0677405
1257,3605;0,0674437
1258,3247;0,0671254
1259,2889;0,0667732
1260,2532;0,0663821
1261,2174;0,0659543
1262,1816;0,0654953
1263,1459;0,0650094
1264,1101;0,064498
1265,0743;0,0639598
1266,0386;0,0633924
1267,0028;0,0627919
1267,9670;0,0621537
1268,9313;0,0614734
1269,8955;0,0607495
1270,8597;0,0599868
1271,8240;0,0591964
1272,7882;0,0583934
1273,7524;0,0575933
1274,7167;0,0568084
1275,6809;0,0560478
1276,6451;0,0553173
1277,6094;0,0546188
1278,5736;0,0539497
1279,5378;0,0533027
1280,5021;0,0526687
1281,4663;0,0520412
1282,4305;0,0514208
1283,3948;0,0508155
1284,3590;0,0502379
1285,3232;0,0497017
1286,2875;0,0492182
1287,2517;0,0487964
1288,2159;0,0484425
1289,1802;0,048161
1290,1444;0,0479539
1291,1086;0,0478204
1292,0729;0,0477576
1293,0371;0,0477624
1294,0013;0,0478327
1294,9656;0,0479674
1295,9298;0,0481661
1296,8940;0,0484282
1297,8583;0,0487526
1298,8225;0,0491377
1299,7867;0,0495813
1300,7510;0,0500801
1301,7152;0,050631
1302,6794;0,0512302
1303,6437;0,0518749
1304,6079;0,0525634
1305,5721;0,0532927
1306,5364;0,054057
1307,5006;0,0548467
1308,4648;0,0556507
1309,4291;0,0564581
1310,3933;0,0572583
1311,3575;0,058038
1312,3218;0,0587788
1313,2860;0,0594579
1314,2502;0,0600517
1315,2145;0,0605395
1316,1787;0,0609053
1317,1429;0,0611382
1318,1072;0,0612354
1319,0714;0,0612075
1320,0356;0,0610807
1320,9999;0,0608916
1321,9641;0,0606763
1322,9283;0,0604621
1323,8926;0,0602645
1324,8568;0,06009
1325,8210;0,0599384
1326,7853;0,0598053
1327,7495;0,0596825
1328,7137;0,0595593
1329,6780;0,0594233
1330,6422;0,059263
1331,6064;0,05907
1332,5707;0,0588389
1333,5349;0,058567
1334,4991;0,0582494
1335,4634;0,057876
1336,4276;0,057431
1337,3918;0,0568987
1338,3561;0,0562798
1339,3203;0,0556071
1340,2845;0,0549431
1341,2488;0,0543481
1342,2130;0,0538498
1343,1772;0,0534426
1344,1415;0,0531094
1345,1057;0,0528393
1346,0699;0,0526335
1347,0342;0,0524994
1347,9984;0,0524435
1348,9626;0,0524665
1349,9269;0,0525622
1350,8911;0,0527202
1351,8553;0,0529288
1352,8196;0,0531804
1353,7838;0,0534736
1354,7480;0,0538129
1355,7123;0,0542027
1356,6765;0,0546408
1357,6407;0,0551155
