TITLE;
DATA TYPE;INFRARED SPECTRUM
ORIGIN;JASCO
OWNER;
DATE;25/03/14
TIME;11:37:12
SPECTROMETER/DATA SYSTEM;
LOCALE;9226
RESOLUTION;
DELTAX;0,964233
XUNITS;1/CM
YUNITS;ABSORBANCE
FIRSTX;  399,1927
LASTX; 4000,6047
NPOINTS;    3736
FIRSTY;     0,14740
MAXY;     0,19670
MINY;     0,01271
XYDATA
399,1927;0,1474
400,1569;0,149528
401,1211;0,150543
402,0854;0,150583
403,0496;0,14998
404,0138;0,149086
404,9781;0,148223
405,9423;0,147649
406,9065;0,147535
407,8708;0,147934
408,8350;0,148785
409,7992;0,149933
410,7635;0,151152
411,7277;0,152202
412,6919;0,152919
413,6562;0,153276
414,6204;0,153372
415,5846;0,153384
416,5489;0,153547
417,5131;0,154148
418,4773;0,155407
419,4416;0,157209
420,4058;0,159091
421,3700;0,160625
422,3343;0,161628
423,2985;0,162071
424,2627;0,161979
425,2270;0,161447
426,1912;0,160665
427,1554;0,15987
428,1197;0,159245
429,0839;0,158854
430,0481;0,158659
431,0124;0,158586
431,9766;0,158579
432,9408;0,158624
433,9051;0,158712
434,8693;0,158793
435,8335;0,158771
436,7978;0,158551
437,7620;0,158109
438,7262;0,157512
439,6905;0,156873
440,6547;0,156276
441,6189;0,15572
442,5832;0,15513
443,5474;0,154419
444,5116;0,153573
445,4759;0,152669
446,4401;0,151818
447,4043;0,15109
448,3686;0,150488
449,3328;0,149989
450,2970;0,149589
451,2613;0,149324
452,2255;0,149233
453,1897;0,1493
454,1540;0,149432
455,1182;0,149497
456,0824;0,149396
457,0467;0,149139
458,0109;0,148856
458,9751;0,148701
459,9394;0,148728
460,9036;0,148866
461,8678;0,149002
462,8321;0,149056
463,7963;0,148998
464,7605;0,148825
465,7248;0,148541
466,6890;0,148151
467,6532;0,147685
468,6175;0,147222
469,5817;0,146877
470,5459;0,146761
471,5102;0,146911
472,4744;0,147252
473,4386;0,147629
474,4029;0,147908
475,3671;0,148042
476,3313;0,148065
477,2956;0,148034
478,2598;0,147982
479,2240;0,147914
480,1883;0,147813
481,1525;0,147667
482,1167;0,147481
483,0810;0,147299
484,0452;0,147199
485,0094;0,147277
485,9737;0,147596
486,9379;0,148149
487,9021;0,148847
488,8664;0,149549
489,8306;0,150103
490,7948;0,150413
491,7591;0,150481
492,7233;0,150415
493,6875;0,150367
494,6518;0,15045
495,6160;0,150689
496,5802;0,151027
497,5445;0,151375
498,5087;0,151655
499,4729;0,151836
500,4372;0,151936
501,4014;0,15202
502,3656;0,152171
503,3299;0,152459
504,2941;0,152906
505,2583;0,153485
506,2226;0,154131
507,1868;0,154769
508,1510;0,155344
509,1153;0,155833
510,0795;0,156251
511,0437;0,156628
512,0080;0,156996
512,9722;0,157373
513,9365;0,157768
514,9007;0,158192
515,8649;0,158656
516,8292;0,159163
517,7934;0,159681
518,7576;0,160147
519,7219;0,160489
520,6861;0,16067
521,6503;0,160704
522,6146;0,160646
523,5788;0,16057
524,5430;0,16053
525,5073;0,160541
526,4715;0,160569
527,4357;0,160555
528,4000;0,160459
529,3642;0,160286
530,3284;0,160081
531,2927;0,159898
532,2569;0,159772
533,2211;0,159705
534,1854;0,159664
535,1496;0,159605
536,1138;0,159499
537,0781;0,159345
538,0423;0,159169
539,0065;0,159005
539,9708;0,158887
540,9350;0,158838
541,8992;0,158871
542,8635;0,158988
543,8277;0,159184
544,7919;0,159438
545,7562;0,159723
546,7204;0,160016
547,6846;0,160301
548,6489;0,160581
549,6131;0,160865
550,5773;0,161157
551,5416;0,161453
552,5058;0,16174
553,4700;0,162011
554,4343;0,162269
555,3985;0,162519
556,3627;0,162749
557,3270;0,162908
558,2912;0,162911
559,2554;0,162666
560,2197;0,162121
561,1839;0,161297
562,1481;0,160291
563,1124;0,159244
564,0766;0,158282
565,0408;0,157484
566,0051;0,156868
566,9693;0,156405
567,9335;0,156045
568,8978;0,155742
569,8620;0,155465
570,8262;0,155207
571,7905;0,154979
572,7547;0,1548
573,7189;0,154682
574,6832;0,154613
575,6474;0,154552
576,6116;0,154444
577,5759;0,154247
578,5401;0,153962
579,5043;0,153626
580,4686;0,153294
581,4328;0,153006
582,3970;0,152775
583,3613;0,15259
584,3255;0,152439
585,2897;0,152321
586,2540;0,15224
587,2182;0,152197
588,1824;0,152176
589,1467;0,152154
590,1109;0,152117
591,0751;0,152067
592,0394;0,152016
593,0036;0,151967
593,9678;0,151897
594,9321;0,151768
595,8963;0,151541
596,8605;0,151202
597,8248;0,150767
598,7890;0,15028
599,7532;0,149792
600,7175;0,149344
601,6817;0,148956
602,6459;0,148627
603,6102;0,148345
604,5744;0,14809
605,5386;0,147839
606,5029;0,14757
607,4671;0,147263
608,4313;0,146897
609,3956;0,146456
610,3598;0,145937
611,3240;0,145358
612,2883;0,144757
613,2525;0,144184
614,2167;0,14367
615,1810;0,143207
616,1452;0,142737
617,1094;0,142167
618,0737;0,141423
619,0379;0,140487
620,0021;0,139413
620,9664;0,138295
621,9306;0,137223
622,8948;0,136259
623,8591;0,135427
624,8233;0,1347
625,7875;0,134087
626,7518;0,133554
627,7160;0,133074
628,6802;0,132623
629,6445;0,132183
630,6087;0,131736
631,5729;0,131265
632,5372;0,130755
633,5014;0,130198
634,4656;0,129606
635,4299;0,129011
636,3941;0,128458
637,3583;0,127985
638,3226;0,127605
639,2868;0,1273
640,2510;0,12703
641,2153;0,126755
642,1795;0,126456
643,1437;0,126141
644,1080;0,125839
645,0722;0,125576
646,0364;0,125357
647,0007;0,125166
647,9649;0,124977
648,9291;0,124776
649,8934;0,124575
650,8576;0,124405
651,8218;0,124305
652,7861;0,1243
653,7503;0,124389
654,7145;0,124553
655,6788;0,124751
656,6430;0,124945
657,6072;0,125107
658,5715;0,125223
659,5357;0,125279
660,4999;0,125244
661,4642;0,125074
662,4284;0,124718
663,3926;0,124141
664,3569;0,123356
665,3211;0,122477
666,2853;0,121753
667,2496;0,121437
668,2138;0,121437
669,1780;0,121309
670,1423;0,120863
671,1065;0,120185
672,0707;0,119288
673,0350;0,11813
673,9992;0,116743
674,9634;0,115248
675,9277;0,113794
676,8919;0,112479
677,8561;0,111306
678,8204;0,110224
679,7846;0,109183
680,7488;0,108175
681,7131;0,107218
682,6773;0,10633
683,6415;0,10552
684,6058;0,104794
685,5700;0,104163
686,5342;0,103641
687,4985;0,103226
688,4627;0,102893
689,4269;0,102596
690,3912;0,102295
691,3554;0,101973
692,3196;0,101638
693,2839;0,101308
694,2481;0,100992
695,2123;0,100682
696,1766;0,100363
697,1408;0,100018
698,1050;0,0996397
699,0693;0,0992284
700,0335;0,0987914
700,9977;0,0983376
701,9620;0,0978765
702,9262;0,097417
703,8904;0,0969599
704,8547;0,0965093
705,8189;0,0960616
706,7831;0,0956072
707,7474;0,0951359
708,7116;0,0946428
709,6758;0,0941301
710,6401;0,0936038
711,6043;0,0930675
712,5685;0,0925214
713,5328;0,091968
714,4970;0,0914185
715,4612;0,0905036
716,4255;0,090098
717,3897;0,0897534
718,3539;0,0894042
719,3182;0,0889511
720,2824;0,0883118
721,2466;0,0874755
722,2109;0,0865176
723,1751;0,0855586
724,1393;0,084702
725,1036;0,0839913
726,0678;0,083403
727,0320;0,0828704
727,9963;0,0823208
728,9605;0,0817101
729,9247;0,0810367
730,8890;0,0803346
731,8532;0,079652
732,8174;0,0790319
733,7817;0,0784983
734,7459;0,0780541
735,7101;0,0776851
736,6744;0,077367
737,6386;0,0770732
738,6028;0,0767802
739,5671;0,0764699
740,5313;0,0761318
741,4955;0,0757632
742,4598;0,0753696
743,4240;0,0749638
744,3882;0,0745627
745,3525;0,0741824
746,3167;0,0738307
747,2809;0,0735024
748,2452;0,0731809
749,2094;0,0728456
750,1736;0,0724833
751,1379;0,0720953
752,1021;0,0716955
753,0663;0,0713001
754,0306;0,0709178
754,9948;0,0705455
755,9590;0,0701752
756,9233;0,0698028
757,8875;0,0694344
758,8517;0,0690821
759,8160;0,0687552
760,7802;0,0684534
761,7444;0,0681685
762,7087;0,0678913
763,6729;0,0676193
764,6371;0,0673563
765,6014;0,0671066
766,5656;0,0668668
767,5298;0,0666243
768,4941;0,0663629
769,4583;0,0660732
770,4225;0,0657605
771,3868;0,0654453
772,3510;0,0651565
773,3152;0,0649188
774,2795;0,0647423
775,2437;0,0646163
776,2079;0,064512
777,1722;0,0643929
778,1364;0,0642287
779,1006;0,064007
780,0649;0,0637373
781,0291;0,0634448
781,9933;0,0631588
782,9576;0,0628984
783,9218;0,0626653
784,8860;0,062445
785,8503;0,0622159
786,8145;0,0619619
787,7787;0,061683
788,7430;0,0613973
789,7072;0,0611342
790,6714;0,0609209
791,6357;0,0607692
792,5999;0,0606696
793,5641;0,0605947
794,5284;0,0605118
795,4926;0,0603973
796,4568;0,0602449
797,4211;0,0600658
798,3853;0,0598792
799,3495;0,0597015
800,3138;0,0595394
801,2780;0,0593892
802,2422;0,059243
803,2065;0,0590951
804,1707;0,0589462
805,1349;0,0588008
806,0992;0,0586627
807,0634;0,0585305
808,0276;0,0583978
808,9919;0,0582583
809,9561;0,0581115
810,9203;0,057965
811,8846;0,0578306
812,8488;0,0577177
813,8130;0,0576271
814,7773;0,0575515
815,7415;0,0574806
816,7057;0,0574077
817,6700;0,0573322
818,6342;0,0572566
819,5984;0,0571811
820,5627;0,0571008
821,5269;0,0570086
822,4911;0,056901
823,4554;0,0567816
824,4196;0,0566582
825,3839;0,0565359
826,3481;0,0564119
827,3123;0,0562768
828,2766;0,0561231
829,2408;0,0559533
830,2050;0,0557821
831,1693;0,0556284
832,1335;0,0555028
833,0977;0,0553987
834,0620;0,0552946
835,0262;0,0551654
835,9904;0,0549974
836,9547;0,0547946
837,9189;0,0545762
838,8831;0,0543647
839,8474;0,0541751
840,8116;0,0540092
841,7758;0,053859
842,7401;0,0537137
843,7043;0,0535667
844,6685;0,0534182
845,6328;0,0532734
846,5970;0,0531381
847,5612;0,0530147
848,5255;0,0529005
849,4897;0,0527885
850,4539;0,0526706
851,4182;0,0525428
852,3824;0,0524084
853,3466;0,052278
854,3109;0,0521649
855,2751;0,0520783
856,2393;0,0520174
857,2036;0,0519713
858,1678;0,0519249
859,1320;0,0518678
860,0963;0,0518009
861,0605;0,051737
862,0247;0,0516943
862,9890;0,0516867
863,9532;0,0517185
864,9174;0,0517848
865,8817;0,0518785
866,8459;0,0519973
867,8101;0,0521455
868,7744;0,0523303
869,7386;0,0525541
870,7028;0,0528092
871,6671;0,0530794
872,6313;0,0533458
873,5955;0,0535934
874,5598;0,0538144
875,5240;0,0540067
876,4882;0,0541715
877,4525;0,0543125
878,4167;0,0544394
879,3809;0,0545701
880,3452;0,0547308
881,3094;0,0549497
882,2736;0,0552486
883,2379;0,055637
884,2021;0,0561119
885,1663;0,0566621
886,1306;0,0572741
887,0948;0,0579361
888,0590;0,058638
889,0233;0,0593694
889,9875;0,060117
890,9517;0,0608628
891,9160;0,0615837
892,8802;0,0622521
893,8444;0,0628385
894,8087;0,0633142
895,7729;0,0636561
896,7371;0,0638496
897,7014;0,0638908
898,6656;0,0637868
899,6298;0,0635536
900,5941;0,0632141
901,5583;0,0627957
902,5225;0,0623276
903,4868;0,0618379
904,4510;0,0613515
905,4152;0,0608884
906,3795;0,0604622
907,3437;0,0600796
908,3079;0,059741
909,2722;0,0594413
910,2364;0,0591733
911,2007;0,0589308
912,1649;0,0587117
913,1292;0,0585188
914,0934;0,058359
915,0576;0,0582395
916,0219;0,0581657
916,9861;0,0581389
917,9503;0,058156
918,9146;0,0582099
919,8788;0,0582905
920,8430;0,0583868
921,8073;0,0584886
922,7715;0,0585882
923,7357;0,0586809
924,7000;0,0587648
925,6642;0,0588413
926,6284;0,0589154
927,5927;0,0589964
928,5569;0,0590969
929,5211;0,0592289
930,4854;0,0593979
931,4496;0,0596003
932,4138;0,0598245
933,3781;0,0600581
934,3423;0,0602959
935,3065;0,0605446
936,2708;0,0608202
937,2350;0,0611406
938,1992;0,0615181
939,1635;0,0619558
940,1277;0,0624496
941,0919;0,0629937
942,0562;0,0635848
943,0204;0,0642241
943,9846;0,0649157
944,9489;0,0656641
945,9131;0,0664723
946,8773;0,0673401
947,8416;0,0682632
948,8058;0,069234
949,7700;0,0702439
950,7343;0,071286
951,6985;0,0723582
952,6627;0,073464
953,6270;0,0746097
954,5912;0,0758001
955,5554;0,0770348
956,5197;0,0783071
957,4839;0,0796058
958,4481;0,0809193
959,4124;0,0822392
960,3766;0,0835617
961,3408;0,0848871
962,3051;0,086218
963,2693;0,0875582
964,2335;0,0889128
965,1978;0,0902877
966,1620;0,0916894
967,1262;0,0931241
968,0905;0,0945978
969,0547;0,0961183
970,0189;0,0976987
970,9832;0,0993611
971,9474;0,101137
972,9116;0,103062
973,8759;0,105165
974,8401;0,107462
975,8043;0,10995
976,7686;0,112611
977,7328;0,115415
978,6970;0,118325
979,6613;0,121295
980,6255;0,124268
981,5897;0,127174
982,5540;0,129937
983,5182;0,132494
984,4824;0,134812
985,4467;0,136892
986,4109;0,13877
987,3751;0,140497
988,3394;0,142117
989,3036;0,143651
990,2678;0,145096
991,2321;0,146435
992,1963;0,147648
993,1605;0,14873
994,1248;0,149695
995,0890;0,150573
996,0532;0,151402
997,0175;0,152211
997,9817;0,153021
998,9459;0,15384
999,9102;0,15467
1000,8744;0,15552
1001,8386;0,156405
1002,8029;0,157348
1003,7671;0,158376
1004,7313;0,159513
1005,6956;0,160775
1006,6598;0,162177
1007,6240;0,163729
1008,5883;0,165433
1009,5525;0,167286
1010,5167;0,169269
1011,4810;0,171347
1012,4452;0,173472
1013,4094;0,175591
1014,3737;0,177652
1015,3379;0,179618
1016,3021;0,181466
1017,2664;0,183185
1018,2306;0,184772
1019,1948;0,18623
1020,1591;0,187563
1021,1233;0,18878
1022,0875;0,189901
1023,0518;0,190954
1024,0160;0,191965
1024,9802;0,192951
1025,9445;0,193907
1026,9087;0,194802
1027,8729;0,195589
1028,8372;0,196209
1029,8014;0,196601
1030,7656;0,196704
1031,7299;0,196462
1032,6941;0,195823
1033,6583;0,194756
1034,6226;0,193272
1035,5868;0,191435
1036,5510;0,189368
1037,5153;0,187231
1038,4795;0,185184
1039,4437;0,18336
1040,4080;0,181839
1041,3722;0,180647
1042,3364;0,179762
1043,3007;0,179135
1044,2649;0,178702
1045,2291;0,178394
1046,1934;0,178148
1047,1576;0,177907
1048,1218;0,177625
1049,0861;0,17726
1050,0503;0,176769
1051,0145;0,176116
1051,9788;0,175273
1052,9430;0,174229
1053,9072;0,172997
1054,8715;0,1716
1055,8357;0,170054
1056,7999;0,168343
1057,7642;0,166418
1058,7284;0,164221
1059,6926;0,161714
1060,6569;0,158913
1061,6211;0,155901
1062,5853;0,152806
1063,5496;0,149762
1064,5138;0,146872
1065,4780;0,144192
1066,4423;0,141729
1067,4065;0,139461
1068,3707;0,137358
1069,3350;0,135387
1070,2992;0,133519
1071,2634;0,131725
1072,2277;0,129971
1073,1919;0,128227
1074,1561;0,126467
1075,1204;0,124678
1076,0846;0,122858
1077,0488;0,121023
1078,0131;0,119205
1078,9773;0,117454
1079,9415;0,115823
1080,9058;0,114362
1081,8700;0,113105
1082,8342;0,112062
1083,7985;0,111216
1084,7627;0,11054
1085,7269;0,109998
1086,6912;0,109557
1087,6554;0,109194
1088,6196;0,108889
1089,5839;0,108633
1090,5481;0,108426
1091,5123;0,108273
1092,4766;0,108183
1093,4408;0,108161
1094,4050;0,108202
1095,3693;0,108295
1096,3335;0,108422
1097,2977;0,10857
1098,2620;0,10873
1099,2262;0,108894
1100,1904;0,109053
1101,1547;0,109188
1102,1189;0,109276
1103,0831;0,109293
1104,0474;0,109227
1105,0116;0,109077
1105,9758;0,108859
1106,9401;0,108592
1107,9043;0,108281
1108,8685;0,107912
1109,8328;0,107442
1110,7970;0,106817
1111,7612;0,105988
1112,7255;0,104941
1113,6897;0,103708
1114,6539;0,102363
1115,6182;0,100995
1116,5824;0,0996879
1117,5466;0,0984875
1118,5109;0,0973989
1119,4751;0,09639
1120,4393;0,0954056
1121,4036;0,0943824
1122,3678;0,0932616
1123,3320;0,0919985
1124,2963;0,0905701
1125,2605;0,0889794
1126,2247;0,0872531
1127,1890;0,0854327
1128,1532;0,0835623
1129,1174;0,0816777
1130,0817;0,0798022
1131,0459;0,077951
1132,0101;0,076139
1132,9744;0,0743889
1133,9386;0,0727339
1134,9028;0,0712156
1135,8671;0,0698775
1136,8313;0,0687574
1137,7955;0,0678802
1138,7598;0,0672533
1139,7240;0,0668658
1140,6882;0,0666914
1141,6525;0,0666952
1142,6167;0,0668416
1143,5809;0,0670995
1144,5452;0,0674452
1145,5094;0,0678606
1146,4736;0,0683317
1147,4379;0,0688473
1148,4021;0,0693994
1149,3663;0,0699834
1150,3306;0,0705961
1151,2948;0,071231
1152,2590;0,0718728
1153,2233;0,0724962
1154,1875;0,0730669
1155,1517;0,0735463
1156,1160;0,0738941
1157,0802;0,0740676
1158,0444;0,0740194
1159,0087;0,0736961
1159,9729;0,0730445
1160,9371;0,0720226
1161,9014;0,0706136
1162,8656;0,0688351
1163,8298;0,0667387
1164,7941;0,0644013
1165,7583;0,0619122
1166,7225;0,0593623
1167,6868;0,0568373
1168,6510;0,0544131
1169,6152;0,0521518
1170,5795;0,050096
1171,5437;0,0482656
1172,5079;0,0466577
1173,4722;0,0452532
1174,4364;0,0440269
1175,4006;0,0429565
1176,3649;0,0420276
1177,3291;0,0412322
1178,2933;0,0405635
1179,2576;0,0400107
1180,2218;0,0395576
1181,1860;0,0391856
1182,1503;0,0388786
1183,1145;0,0386272
1184,0787;0,0384297
1185,0430;0,0382893
1186,0072;0,0382107
1186,9714;0,0381971
1187,9357;0,0382495
1188,8999;0,0383671
1189,8641;0,0385489
1190,8284;0,038794
1191,7926;0,0391018
1192,7568;0,0394715
1193,7211;0,0399
1194,6853;0,0403813
1195,6495;0,0409047
1196,6138;0,0414556
1197,5780;0,0420169
1198,5422;0,0425726
1199,5065;0,0430122
1200,4707;0,043537
1201,4349;0,0440353
1202,3992;0,0445057
1203,3634;0,044947
1204,3276;0,0453571
1205,2919;0,0457351
1206,2561;0,0460836
1207,2203;0,0464107
1208,1846;0,0467307
1209,1488;0,047062
1210,1130;0,047425
1211,0773;0,0478379
1212,0415;0,0483136
1213,0057;0,048857
1213,9700;0,0494634
1214,9342;0,0501205
1215,8984;0,050812
1216,8627;0,0515204
1217,8269;0,0522316
1218,7911;0,052937
1219,7554;0,053632
1220,7196;0,0543117
1221,6838;0,0549684
1222,6481;0,05559
1223,6123;0,0561634
1224,5765;0,0566798
1225,5408;0,0571392
1226,5050;0,0575501
1227,4692;0,0579253
1228,4335;0,0582743
1229,3977;0,0585992
1230,3619;0,0588939
1231,3262;0,0591494
1232,2904;0,0593587
1233,2546;0,0595204
1234,2189;0,0596384
1235,1831;0,0597196
1236,1473;0,0597704
1237,1116;0,0597959
1238,0758;0,0598002
1239,0400;0,059787
1240,0043;0,05976
1240,9685;0,0597219
1241,9327;0,0596723
1242,8970;0,0596068
1243,8612;0,0595172
1244,8254;0,0593938
1245,7897;0,0592298
1246,7539;0,0590253
1247,7181;0,0587882
1248,6824;0,0585322
1249,6466;0,0582718
1250,6108;0,058018
1251,5751;0,0577758
1252,5393;0,0575461
1253,5035;0,0573288
1254,4678;0,0571243
1255,4320;0,0569336
1256,3962;0,0567545
1257,3605;0,0565803
1258,3247;0,0563989
1259,2889;0,0561955
1260,2532;0,0559574
1261,2174;0,0556775
1262,1816;0,055356
1263,1459;0,0549989
1264,1101;0,0546147
1265,0743;0,0542105
1266,0386;0,0537893
1267,0028;0,0533494
1267,9670;0,0528859
1268,9313;0,0523943
1269,8955;0,0518734
1270,8597;0,0513262
1271,8240;0,0507586
1272,7882;0,0501778
1273,7524;0,0495912
1274,7167;0,0490071
1275,6809;0,0484358
1276,6451;0,0478874
1277,6094;0,0473683
1278,5736;0,0468767
1279,5378;0,0464027
1280,5021;0,0459322
1281,4663;0,0454552
1282,4305;0,0449718
1283,3948;0,044493
1284,3590;0,0440367
1285,3232;0,0436219
1286,2875;0,0432628
1287,2517;0,0429671
1288,2159;0,0427352
1289,1802;0,0425632
1290,1444;0,0424461
1291,1086;0,0423804
1292,0729;0,042367
1293,0371;0,0424097
1294,0013;0,0425126
1294,9656;0,0426769
1295,9298;0,0428985
1296,8940;0,0431696
1297,8583;0,0434827
1298,8225;0,0438337
1299,7867;0,0442229
1300,7510;0,0446523
1301,7152;0,0451236
1302,6794;0,0456353
1303,6437;0,0461829
1304,6079;0,0467622
1305,5721;0,0473691
1306,5364;0,0480004
1307,5006;0,0486527
1308,4648;0,0493222
1309,4291;0,0500033
1310,3933;0,0506865
1311,3575;0,0513565
1312,3218;0,0519915
1313,2860;0,0525658
1314,2502;0,0530552
1315,2145;0,0534397
1316,1787;0,0537044
1317,1429;0,0538395
1318,1072;0,053844
1319,0714;0,0537317
1320,0356;0,0535328
1320,9999;0,0532871
1321,9641;0,0530316
1322,9283;0,0527917
1323,8926;0,0525804
1324,8568;0,0524022
1325,8210;0,0522567
1326,7853;0,0521412
1327,7495;0,0520488
1328,7137;0,0519688
1329,6780;0,0518869
1330,6422;0,0517885
1331,6064;0,0516618
1332,5707;0,051499
1333,5349;0,0512968
1334,4991;0,0510515
1335,4634;0,0507557
1336,4276;0,0503973
1337,3918;0,0499643
1338,3561;0,049458
1339,3203;0,048907
1340,2845;0,048365
1341,2488;0,0478844
1342,2130;0,047489
1343,1772;0,0471731
1344,1415;0,0469206
1345,1057;0,0467203
1346,0699;0,0465722
1347,0342;0,0464825
1347,9984;0,0464594
1348,9626;0,0465071
1349,9269;0,0466244
1350,8911;0,0468037
1351,8553;0,0470331
1352,8196;0,0473002
1353,7838;0,0475965
1354,7480;0,0479188
1355,7123;0,0482677
1356,6765;0,0486421
