TITLE;
DATA TYPE;INFRARED SPECTRUM
ORIGIN;JASCO
OWNER;
DATE;25/01/29
TIME;14:43:40
SPECTROMETER/DATA SYSTEM;
LOCALE;9226
RESOLUTION;
DELTAX;0,964233
XUNITS;1/CM
YUNITS;ABSORBANCE
FIRSTX;  399,1927
LASTX; 4000,6047
NPOINTS;    3736
FIRSTY;     0,11158
MAXY;     0,14750
MINY;     0,01284
XYDATA
399,1927;0,111582
400,1569;0,111899
401,1211;0,111688
402,0854;0,111386
403,0496;0,111245
404,0138;0,111322
404,9781;0,111545
405,9423;0,111784
406,9065;0,111925
407,8708;0,111911
408,8350;0,111742
409,7992;0,111443
410,7635;0,111052
411,7277;0,110625
412,6919;0,110245
413,6562;0,110004
414,6204;0,109997
415,5846;0,110328
416,5489;0,111113
417,5131;0,112411
418,4773;0,114053
419,4416;0,115586
420,4058;0,116609
421,3700;0,117101
422,3343;0,117274
423,2985;0,117312
424,2627;0,117284
425,2270;0,117174
426,1912;0,116948
427,1554;0,116608
428,1197;0,116214
429,0839;0,115861
430,0481;0,115631
431,0124;0,11556
431,9766;0,115625
432,9408;0,115751
433,9051;0,115854
434,8693;0,115857
435,8335;0,115705
436,7978;0,115355
437,7620;0,114787
438,7262;0,11402
439,6905;0,113133
440,6547;0,112268
441,6189;0,111597
442,5832;0,111242
443,5474;0,1112
444,5116;0,111331
445,4759;0,111444
446,4401;0,111419
447,4043;0,11124
448,3686;0,110956
449,3328;0,110603
450,2970;0,110182
451,2613;0,109671
452,2255;0,109092
453,1897;0,108534
454,1540;0,108142
455,1182;0,108049
456,0824;0,108301
457,0467;0,108791
458,0109;0,109275
458,9751;0,109493
459,9394;0,109336
460,9036;0,108882
461,8678;0,108307
462,8321;0,107786
463,7963;0,107445
464,7605;0,107343
465,7248;0,107459
466,6890;0,107696
467,6532;0,107922
468,6175;0,108025
469,5817;0,107961
470,5459;0,107765
471,5102;0,10753
472,4744;0,107348
473,4386;0,107248
474,4029;0,107191
475,3671;0,10713
476,3313;0,107062
477,2956;0,107035
478,2598;0,107102
479,2240;0,107282
480,1883;0,107538
481,1525;0,107807
482,1167;0,108054
483,0810;0,108294
484,0452;0,108574
485,0094;0,108924
485,9737;0,10932
486,9379;0,109706
487,9021;0,110029
488,8664;0,110272
489,8306;0,110449
490,7948;0,110579
491,7591;0,11068
492,7233;0,11077
493,6875;0,110881
494,6518;0,111053
495,6160;0,11131
496,5802;0,111637
497,5445;0,111982
498,5087;0,112285
499,4729;0,112514
500,4372;0,112687
501,4014;0,112861
502,3656;0,113085
503,3299;0,113367
504,2941;0,113673
505,2583;0,113957
506,2226;0,114203
507,1868;0,114422
508,1510;0,114638
509,1153;0,114857
510,0795;0,115063
511,0437;0,115234
512,0080;0,115369
512,9722;0,115494
513,9365;0,115653
514,9007;0,115884
515,8649;0,116201
516,8292;0,116584
517,7934;0,116983
518,7576;0,117338
519,7219;0,117602
520,6861;0,11775
521,6503;0,117783
522,6146;0,117728
523,5788;0,117634
524,5430;0,117572
525,5073;0,117602
526,4715;0,117745
527,4357;0,117954
528,4000;0,118149
529,3642;0,118257
530,3284;0,118251
531,2927;0,118152
532,2569;0,118008
533,2211;0,117865
534,1854;0,117743
535,1496;0,117644
536,1138;0,117557
537,0781;0,117479
538,0423;0,117416
539,0065;0,117367
539,9708;0,117315
540,9350;0,117232
541,8992;0,117099
542,8635;0,116924
543,8277;0,116756
544,7919;0,116668
545,7562;0,116719
546,7204;0,116924
547,6846;0,117238
548,6489;0,117583
549,6131;0,117883
550,5773;0,118104
551,5416;0,118258
552,5058;0,118383
553,4700;0,118508
554,4343;0,118637
555,3985;0,118752
556,3627;0,118825
557,3270;0,118848
558,2912;0,118827
559,2554;0,118778
560,2197;0,118699
561,1839;0,118572
562,1481;0,118365
563,1124;0,118054
564,0766;0,117643
565,0408;0,117173
566,0051;0,116711
566,9693;0,116339
567,9335;0,116119
568,8978;0,116066
569,8620;0,116139
570,8262;0,116255
571,7905;0,116326
572,7547;0,116302
573,7189;0,116184
574,6832;0,116019
575,6474;0,115874
576,6116;0,115793
577,5759;0,115782
578,5401;0,115804
579,5043;0,115816
580,4686;0,115787
581,4328;0,11571
582,3970;0,115599
583,3613;0,115471
584,3255;0,115337
585,2897;0,115199
586,2540;0,115058
587,2182;0,114922
588,1824;0,114805
589,1467;0,114722
590,1109;0,114677
591,0751;0,114657
592,0394;0,114634
593,0036;0,114576
593,9678;0,11446
594,9321;0,114284
595,8963;0,114059
596,8605;0,113803
597,8248;0,113528
598,7890;0,11324
599,7532;0,112939
600,7175;0,112626
601,6817;0,112312
602,6459;0,112017
603,6102;0,111763
604,5744;0,111566
605,5386;0,111421
606,5029;0,111301
607,4671;0,111159
608,4313;0,110945
609,3956;0,110627
610,3598;0,110211
611,3240;0,109745
612,2883;0,109303
613,2525;0,108947
614,2167;0,108699
615,1810;0,108522
616,1452;0,108337
617,1094;0,108054
618,0737;0,107625
619,0379;0,107056
620,0021;0,106402
620,9664;0,105715
621,9306;0,105033
622,8948;0,10437
623,8591;0,103739
624,8233;0,103148
625,7875;0,102648
626,7518;0,10225
627,7160;0,101938
628,6802;0,101666
629,6445;0,101383
630,6087;0,101059
631,5729;0,100694
632,5372;0,100311
633,5014;0,0999448
634,4656;0,0996194
635,4299;0,0993466
636,3941;0,0991256
637,3583;0,0989484
638,3226;0,0988006
639,2868;0,0986618
640,2510;0,0985097
641,2153;0,09833
642,1795;0,0981253
643,1437;0,0979158
644,1080;0,0977265
645,0722;0,0975704
646,0364;0,0974398
647,0007;0,0973123
647,9649;0,0971701
648,9291;0,0970168
649,8934;0,0968804
650,8576;0,0967963
651,8218;0,0967855
652,7861;0,0968405
653,7503;0,0969298
654,7145;0,097012
655,6788;0,0970553
656,6430;0,0970531
657,6072;0,0970256
658,5715;0,0970051
659,5357;0,0970076
660,4999;0,0970076
661,4642;0,0969369
662,4284;0,096713
663,3926;0,0962771
664,3569;0,0956258
665,3211;0,0948478
666,2853;0,0941445
667,2496;0,0937451
668,2138;0,0936498
669,1780;0,0935642
670,1423;0,0933045
671,1065;0,0928929
672,0707;0,0923436
673,0350;0,0916495
673,9992;0,0908419
674,9634;0,0899847
675,9277;0,0891337
676,8919;0,0883071
677,8561;0,0874952
678,8204;0,0866927
679,7846;0,0859192
680,7488;0,0852085
681,7131;0,0845849
682,6773;0,0840456
683,6415;0,0835689
684,6058;0,0831337
685,5700;0,082732
686,5342;0,0823643
687,4985;0,0820286
688,4627;0,0817178
689,4269;0,0814195
690,3912;0,0811291
691,3554;0,0808505
692,3196;0,0805885
693,2839;0,0803413
694,2481;0,0801024
695,2123;0,0798672
696,1766;0,0796383
697,1408;0,0794224
698,1050;0,0792215
699,0693;0,0790262
700,0335;0,078818
700,9977;0,0785795
701,9620;0,0783047
702,9262;0,0780016
703,8904;0,0776825
704,8547;0,077366
705,8189;0,0770631
706,7831;0,0767756
707,7474;0,0764988
708,7116;0,0762242
709,6758;0,0759429
710,6401;0,0756459
711,6043;0,0753269
712,5685;0,074985
713,5328;0,0746276
714,4970;0,074269
715,4612;0,0736522
716,4255;0,0733832
717,3897;0,0731448
718,3539;0,0728966
719,3182;0,0725868
720,2824;0,0721786
721,2466;0,0716713
722,2109;0,0711003
723,1751;0,0705151
724,1393;0,0699564
725,1036;0,0694459
726,0678;0,0689894
727,0320;0,0685844
727,9963;0,0682237
728,9605;0,0678948
729,9247;0,067579
730,8890;0,0672548
731,8532;0,066906
732,8174;0,0665308
733,7817;0,0661436
734,7459;0,0657705
735,7101;0,0654374
736,6744;0,0651602
737,6386;0,0649385
738,6028;0,0647564
739,5671;0,0645875
740,5313;0,0644022
741,4955;0,0641753
742,4598;0,0638935
743,4240;0,0635603
744,3882;0,0631967
745,3525;0,0628338
746,3167;0,0625012
747,2809;0,0622146
748,2452;0,0619706
749,2094;0,0617507
750,1736;0,0615337
751,1379;0,0613071
752,1021;0,0610713
753,0663;0,0608325
754,0306;0,0605923
754,9948;0,0603412
755,9590;0,0600632
756,9233;0,0597482
757,8875;0,059404
758,8517;0,0590575
759,8160;0,0587442
760,7802;0,0584902
761,7444;0,0582993
762,7087;0,0581506
763,6729;0,05801
764,6371;0,0578467
765,6014;0,0576466
766,5656;0,0574156
767,5298;0,0571727
768,4941;0,056938
769,4583;0,0567238
770,4225;0,0565315
771,3868;0,0563552
772,3510;0,0561879
773,3152;0,0560253
774,2795;0,0558657
775,2437;0,055708
776,2079;0,0555505
777,1722;0,055391
778,1364;0,0552295
779,1006;0,055068
780,0649;0,0549087
781,0291;0,0547506
781,9933;0,054589
782,9576;0,0544173
783,9218;0,0542317
784,8860;0,0540347
785,8503;0,0538343
786,8145;0,0536403
787,7787;0,0534592
788,7430;0,0532937
789,7072;0,0531431
790,6714;0,0530068
791,6357;0,0528854
792,5999;0,0527794
793,5641;0,0526869
794,5284;0,0526037
795,4926;0,0525249
796,4568;0,0524493
797,4211;0,052381
798,3853;0,0523281
799,3495;0,0522968
800,3138;0,0522858
801,2780;0,0522845
802,2422;0,0522764
803,2065;0,0522468
804,1707;0,0521906
805,1349;0,052114
806,0992;0,0520301
807,0634;0,0519506
808,0276;0,0518797
808,9919;0,051814
809,9561;0,051748
810,9203;0,0516807
811,8846;0,0516184
812,8488;0,0515699
813,8130;0,0515398
814,7773;0,0515229
815,7415;0,0515046
816,7057;0,0514688
817,6700;0,0514056
818,6342;0,0513174
819,5984;0,0512181
820,5627;0,0511266
821,5269;0,0510595
822,4911;0,0510242
823,4554;0,051016
824,4196;0,0510199
825,3839;0,0510174
826,3481;0,050994
827,3123;0,0509462
828,2766;0,0508829
829,2408;0,0508192
830,2050;0,0507668
831,1693;0,0507256
832,1335;0,0506824
833,0977;0,0506173
834,0620;0,0505157
835,0262;0,0503766
835,9904;0,0502132
836,9547;0,0500455
837,9189;0,0498898
838,8831;0,0497518
839,8474;0,0496275
840,8116;0,0495091
841,7758;0,0493926
842,7401;0,049281
843,7043;0,0491823
844,6685;0,0491034
845,6328;0,0490463
846,5970;0,0490069
847,5612;0,0489784
848,5255;0,0489549
849,4897;0,0489342
850,4539;0,0489159
851,4182;0,0488995
852,3824;0,0488817
853,3466;0,0488575
854,3109;0,0488229
855,2751;0,0487783
856,2393;0,0487297
857,2036;0,0486863
858,1678;0,0486565
859,1320;0,0486442
860,0963;0,0486476
861,0605;0,0486611
862,0247;0,0486787
862,9890;0,0486973
863,9532;0,0487185
864,9174;0,0487476
865,8817;0,0487914
866,8459;0,0488552
867,8101;0,0489402
868,7744;0,0490425
869,7386;0,0491539
870,7028;0,0492644
871,6671;0,0493653
872,6313;0,0494522
873,5955;0,049526
874,5598;0,0495919
875,5240;0,0496574
876,4882;0,0497303
877,4525;0,0498179
878,4167;0,0499273
879,3809;0,0500665
880,3452;0,0502434
881,3094;0,0504646
882,2736;0,0507333
883,2379;0,0510489
884,2021;0,05141
885,1663;0,0518162
886,1306;0,0522705
887,0948;0,0527764
888,0590;0,0533341
889,0233;0,0539353
889,9875;0,0545624
890,9517;0,0551906
891,9160;0,0557925
892,8802;0,0563427
893,8444;0,0568189
894,8087;0,0572015
895,7729;0,0574732
896,7371;0,0576206
897,7014;0,0576365
898,6656;0,0575221
899,6298;0,0572878
900,5941;0,05695
901,5583;0,056529
902,5225;0,0560462
903,4868;0,0555252
904,4510;0,0549919
905,4152;0,0544741
906,3795;0,0539987
907,3437;0,0535867
908,3079;0,0532499
909,2722;0,0529898
910,2364;0,0528008
911,2007;0,0526752
912,1649;0,0526064
913,1292;0,0525895
914,0934;0,0526196
915,0576;0,0526894
916,0219;0,0527894
916,9861;0,0529104
917,9503;0,0530458
918,9146;0,0531929
919,8788;0,0533517
920,8430;0,0535213
921,8073;0,0536975
922,7715;0,0538733
923,7357;0,0540407
924,7000;0,0541937
925,6642;0,0543304
926,6284;0,0544528
927,5927;0,0545657
928,5569;0,0546746
929,5211;0,0547841
930,4854;0,0548976
931,4496;0,0550169
932,4138;0,0551442
933,3781;0,0552832
934,3423;0,0554399
935,3065;0,0556224
936,2708;0,0558386
937,2350;0,0560942
938,1992;0,0563911
939,1635;0,0567284
940,1277;0,0571038
941,0919;0,0575152
942,0562;0,0579614
943,0204;0,0584416
943,9846;0,0589559
944,9489;0,0595058
945,9131;0,0600954
946,8773;0,0607307
947,8416;0,0614176
948,8058;0,0621572
949,7700;0,0629439
950,7343;0,0637668
951,6985;0,0646148
952,6627;0,0654832
953,6270;0,0663768
954,5912;0,0673078
955,5554;0,0682876
956,5197;0,0693194
957,4839;0,0703949
958,4481;0,0714976
959,4124;0,0726109
960,3766;0,0737242
961,3408;0,0748348
962,3051;0,0759431
963,2693;0,0770475
964,2335;0,0781431
965,1978;0,0792245
966,1620;0,0802932
967,1262;0,0813608
968,0905;0,0824479
969,0547;0,0835776
970,0189;0,0847689
970,9832;0,0860339
971,9474;0,0873804
972,9116;0,0888158
973,8759;0,0903496
974,8401;0,0919923
975,8043;0,0937505
976,7686;0,0956224
977,7328;0,0975946
978,6970;0,0996406
979,6613;0,101722
980,6255;0,103789
981,5897;0,105788
982,5540;0,107669
983,5182;0,10939
984,4824;0,11093
985,4467;0,112284
986,4109;0,113462
987,3751;0,114483
988,3394;0,115369
989,3036;0,116141
990,2678;0,116818
991,2321;0,117414
992,1963;0,117942
993,1605;0,118411
994,1248;0,118832
995,0890;0,119217
996,0532;0,119586
997,0175;0,11996
997,9817;0,120355
998,9459;0,120781
999,9102;0,121235
1000,8744;0,121716
1001,8386;0,122226
1002,8029;0,122779
1003,7671;0,123399
1004,7313;0,124111
1005,6956;0,124929
1006,6598;0,125859
1007,6240;0,126897
1008,5883;0,128036
1009,5525;0,129271
1010,5167;0,130593
1011,4810;0,131987
1012,4452;0,133422
1013,4094;0,134859
1014,3737;0,136258
1015,3379;0,137587
1016,3021;0,138825
1017,2664;0,139962
1018,2306;0,140993
1019,1948;0,141918
1020,1591;0,142742
1021,1233;0,143475
1022,0875;0,144136
1023,0518;0,144742
1024,0160;0,145308
1024,9802;0,145838
1025,9445;0,146326
1026,9087;0,146757
1027,8729;0,147112
1028,8372;0,147369
1029,8014;0,147505
1030,7656;0,147492
1031,7299;0,147303
1032,6941;0,146911
1033,6583;0,146304
1034,6226;0,145491
1035,5868;0,144507
1036,5510;0,143414
1037,5153;0,142285
1038,4795;0,1412
1039,4437;0,140218
1040,4080;0,139378
1041,3722;0,138686
1042,3364;0,138126
1043,3007;0,137662
1044,2649;0,137252
1045,2291;0,136853
1046,1934;0,13643
1047,1576;0,135958
1048,1218;0,135417
1049,0861;0,134796
1050,0503;0,134084
1051,0145;0,133278
1051,9788;0,132375
1052,9430;0,131379
1053,9072;0,130295
1054,8715;0,129129
1055,8357;0,127881
1056,7999;0,126543
1057,7642;0,1251
1058,7284;0,123535
1059,6926;0,121841
1060,6569;0,120031
1061,6211;0,11814
1062,5853;0,116225
1063,5496;0,114353
1064,5138;0,112579
1065,4780;0,110935
1066,4423;0,109428
1067,4065;0,108042
1068,3707;0,106753
1069,3350;0,105537
1070,2992;0,104382
1071,2634;0,103277
1072,2277;0,102212
1073,1919;0,101171
1074,1561;0,10014
1075,1204;0,0991032
1076,0846;0,0980563
1077,0488;0,097004
1078,0131;0,0959604
1078,9773;0,094945
1079,9415;0,0939788
1080,9058;0,093081
1081,8700;0,0922662
1082,8342;0,0915422
1083,7985;0,0909095
1084,7627;0,0903621
1085,7269;0,0898901
1086,6912;0,0894814
1087,6554;0,0891241
1088,6196;0,0888079
1089,5839;0,0885257
1090,5481;0,088275
1091,5123;0,0880586
1092,4766;0,0878829
1093,4408;0,0877548
1094,4050;0,0876778
1095,3693;0,0876505
1096,3335;0,0876666
1097,2977;0,0877179
1098,2620;0,0877964
1099,2262;0,0878949
1100,1904;0,0880058
1101,1547;0,0881193
1102,1189;0,0882218
1103,0831;0,0882967
1104,0474;0,0883266
1105,0116;0,0882975
1105,9758;0,088202
1106,9401;0,0880403
1107,9043;0,0878173
1108,8685;0,0875363
1109,8328;0,0871931
1110,7970;0,0867749
1111,7612;0,0862664
1112,7255;0,0856601
1113,6897;0,0849661
1114,6539;0,0842141
1115,6182;0,0834469
1116,5824;0,0827067
1117,5466;0,0820218
1118,5109;0,081399
1119,4751;0,0808226
1120,4393;0,0802593
1121,4036;0,0796665
1122,3678;0,0790007
1123,3320;0,0782266
1124,2963;0,077323
1125,2605;0,0762863
1126,2247;0,0751302
1127,1890;0,0738801
1128,1532;0,0725658
1129,1174;0,0712152
1130,0817;0,0698502
1131,0459;0,0684874
1132,0101;0,0671421
1132,9744;0,0658335
1133,9386;0,0645871
1134,9028;0,0634343
1135,8671;0,062406
1136,8313;0,0615256
1137,7955;0,0608032
1138,7598;0,0602353
1139,7240;0,0598091
1140,6882;0,0595096
1141,6525;0,0593238
1142,6167;0,059242
1143,5809;0,0592543
1144,5452;0,0593487
1145,5094;0,0595108
1146,4736;0,0597271
1147,4379;0,0599884
1148,4021;0,0602905
1149,3663;0,0606315
1150,3306;0,0610065
1151,2948;0,061404
1152,2590;0,0618056
1153,2233;0,0621887
1154,1875;0,0625299
1155,1517;0,0628064
1156,1160;0,0629937
1157,0802;0,0630633
1158,0444;0,0629812
1159,0087;0,0627105
1159,9729;0,0622173
1160,9371;0,0614785
1161,9014;0,0604878
1162,8656;0,0592584
1163,8298;0,0578222
1164,7941;0,056225
1165,7583;0,0545211
1166,7225;0,0527671
1167,6868;0,0510171
1168,6510;0,049318
1169,6152;0,0477066
1170,5795;0,0462082
1171,5437;0,0448383
1172,5079;0,0436056
1173,4722;0,0425149
1174,4364;0,0415677
1175,4006;0,040761
1176,3649;0,0400852
1177,3291;0,0395241
1178,2933;0,0390575
1179,2576;0,0386662
1180,2218;0,0383356
1181,1860;0,0380576
1182,1503;0,0378294
1183,1145;0,0376505
1184,0787;0,037521
1185,0430;0,0374413
1186,0072;0,0374129
1186,9714;0,0374383
1187,9357;0,0375204
1188,8999;0,0376605
1189,8641;0,0378576
1190,8284;0,0381088
1191,7926;0,0384109
1192,7568;0,0387614
1193,7211;0,0391586
1194,6853;0,0395994
1195,6495;0,0400784
1196,6138;0,0405864
1197,5780;0,041112
1198,5422;0,041644
1199,5065;0,0421465
1200,4707;0,0426775
1201,4349;0,0432072
1202,3992;0,0437389
1203,3634;0,0442739
1204,3276;0,0448085
1205,2919;0,0453347
1206,2561;0,0458445
1207,2203;0,0463346
1208,1846;0,0468111
1209,1488;0,0472895
1210,1130;0,04779
1211,0773;0,0483308
1212,0415;0,0489219
1213,0057;0,049562
1213,9700;0,0502402
1214,9342;0,0509402
1215,8984;0,0516446
1216,8627;0,0523378
1217,8269;0,0530075
1218,7911;0,0536455
1219,7554;0,0542485
1220,7196;0,0548171
1221,6838;0,0553542
1222,6481;0,0558624
1223,6123;0,0563417
1224,5765;0,0567889
1225,5408;0,0571991
1226,5050;0,0575685
1227,4692;0,0578964
1228,4335;0,0581851
1229,3977;0,0584387
1230,3619;0,0586607
1231,3262;0,0588528
1232,2904;0,0590148
1233,2546;0,0591461
1234,2189;0,0592467
1235,1831;0,0593185
1236,1473;0,0593653
1237,1116;0,0593919
1238,0758;0,059403
1239,0400;0,0594019
1240,0043;0,0593896
1240,9685;0,0593643
1241,9327;0,0593223
1242,8970;0,0592589
1243,8612;0,0591691
1244,8254;0,0590495
1245,7897;0,0588981
1246,7539;0,0587148
1247,7181;0,0585026
1248,6824;0,0582672
1249,6466;0,0580179
1250,6108;0,057766
1251,5751;0,0575223
1252,5393;0,0572943
1253,5035;0,0570834
1254,4678;0,0568845
1255,4320;0,0566877
1256,3962;0,056482
1257,3605;0,0562585
1258,3247;0,0560129
1259,2889;0,0557453
1260,2532;0,0554581
1261,2174;0,0551537
1262,1816;0,0548319
1263,1459;0,054489
1264,1101;0,0541195
1265,0743;0,0537172
1266,0386;0,0532778
1267,0028;0,0527991
1267,9670;0,0522823
1268,9313;0,0517311
1269,8955;0,0511519
1270,8597;0,0505523
1271,8240;0,0499398
1272,7882;0,0493207
1273,7524;0,0486991
1274,7167;0,0480791
1275,6809;0,0474658
1276,6451;0,0468661
1277,6094;0,0462877
1278,5736;0,0457357
1279,5378;0,0452109
1280,5021;0,0447097
1281,4663;0,0442268
1282,4305;0,0437588
1283,3948;0,0433071
1284,3590;0,0428779
1285,3232;0,0424815
1286,2875;0,0421291
1287,2517;0,0418306
1288,2159;0,0415912
1289,1802;0,0414103
1290,1444;0,0412821
1291,1086;0,0411981
1292,0729;0,041152
1293,0371;0,0411426
1294,0013;0,0411739
1294,9656;0,0412529
1295,9298;0,0413847
1296,8940;0,0415706
1297,8583;0,0418075
1298,8225;0,0420904
1299,7867;0,0424145
1300,7510;0,0427752
1301,7152;0,0431686
1302,6794;0,0435899
1303,6437;0,0440347
1304,6079;0,0444993
1305,5721;0,0449808
1306,5364;0,0454761
1307,5006;0,0459805
1308,4648;0,0464884
1309,4291;0,0469938
1310,3933;0,0474911
1311,3575;0,047974
1312,3218;0,0484339
1313,2860;0,0488584
1314,2502;0,0492324
1315,2145;0,0495408
1316,1787;0,0497713
1317,1429;0,049917
1318,1072;0,0499784
1319,0714;0,0499649
1320,0356;0,0498937
1320,9999;0,0497855
1321,9641;0,0496592
1322,9283;0,0495287
1323,8926;0,0494029
1324,8568;0,0492868
1325,8210;0,0491817
1326,7853;0,0490853
1327,7495;0,048992
1328,7137;0,0488933
1329,6780;0,0487799
1330,6422;0,0486433
1331,6064;0,0484766
1332,5707;0,0482757
1333,5349;0,0480385
1334,4991;0,0477634
1335,4634;0,0474485
1336,4276;0,047093
1337,3918;0,0467017
1338,3561;0,046292
1339,3203;0,0458939
1340,2845;0,045539
1341,2488;0,0452436
1342,2130;0,0450029
1343,1772;0,0448005
1344,1415;0,0446212
1345,1057;0,0444593
1346,0699;0,0443201
1347,0342;0,0442165
1347,9984;0,0441622
1348,9626;0,0441657
1349,9269;0,0442267
