TITLE;
DATA TYPE;INFRARED SPECTRUM
ORIGIN;JASCO
OWNER;
DATE;25/03/19
TIME;18:07:50
SPECTROMETER/DATA SYSTEM;
LOCALE;9226
RESOLUTION;
DELTAX;0,964233
XUNITS;1/CM
YUNITS;ABSORBANCE
FIRSTX;  399,1927
LASTX; 4000,6047
NPOINTS;    3736
FIRSTY;     0,20990
MAXY;     0,26760
MINY;     0,01221
XYDATA
399,1927;0,209897
400,1569;0,209478
401,1211;0,208787
402,0854;0,207899
403,0496;0,20664
404,0138;0,204879
404,9781;0,202719
405,9423;0,200522
406,9065;0,198735
407,8708;0,197618
408,8350;0,197097
409,7992;0,196863
410,7635;0,196619
411,7277;0,196284
412,6919;0,196017
413,6562;0,196065
414,6204;0,196605
415,5846;0,197698
416,5489;0,19929
417,5131;0,201164
418,4773;0,20289
419,4416;0,204023
420,4058;0,204496
421,3700;0,204599
422,3343;0,204584
423,2985;0,204527
424,2627;0,204398
425,2270;0,204176
426,1912;0,203891
427,1554;0,203608
428,1197;0,203374
429,0839;0,203201
430,0481;0,203095
431,0124;0,203094
431,9766;0,20326
432,9408;0,203622
433,9051;0,2041
434,8693;0,204485
435,8335;0,204542
436,7978;0,204173
437,7620;0,203518
438,7262;0,202895
439,6905;0,202631
440,6547;0,202887
441,6189;0,203565
442,5832;0,204338
443,5474;0,204821
444,5116;0,204807
445,4759;0,204382
446,4401;0,203807
447,4043;0,203323
448,3686;0,20302
449,3328;0,202852
450,2970;0,202721
451,2613;0,202568
452,2255;0,202402
453,1897;0,20225
454,1540;0,202097
455,1182;0,201866
456,0824;0,201465
457,0467;0,200881
458,0109;0,20024
458,9751;0,199736
459,9394;0,19947
460,9036;0,199378
461,8678;0,199303
462,8321;0,199114
463,7963;0,198774
464,7605;0,198348
465,7248;0,197957
466,6890;0,197709
467,6532;0,197646
468,6175;0,197752
469,5817;0,197988
470,5459;0,19831
471,5102;0,198663
472,4744;0,198972
473,4386;0,199159
474,4029;0,199189
475,3671;0,199088
476,3313;0,198922
477,2956;0,198765
478,2598;0,19867
479,2240;0,198655
480,1883;0,198709
481,1525;0,198813
482,1167;0,198952
483,0810;0,199121
484,0452;0,199325
485,0094;0,199564
485,9737;0,199845
486,9379;0,200187
487,9021;0,200616
488,8664;0,20115
489,8306;0,20176
490,7948;0,202355
491,7591;0,202801
492,7233;0,202993
493,6875;0,202928
494,6518;0,202721
495,6160;0,20255
496,5802;0,20256
497,5445;0,202799
498,5087;0,203212
499,4729;0,20368
500,4372;0,204078
501,4014;0,204335
502,3656;0,204458
503,3299;0,204523
504,2941;0,20463
505,2583;0,204856
506,2226;0,205228
507,1868;0,205719
508,1510;0,20625
509,1153;0,206733
510,0795;0,207116
511,0437;0,207419
512,0080;0,207728
512,9722;0,208151
513,9365;0,208753
514,9007;0,209522
515,8649;0,210365
516,8292;0,211142
517,7934;0,211739
518,7576;0,212124
519,7219;0,212355
520,6861;0,212528
521,6503;0,212711
522,6146;0,212922
523,5788;0,213125
524,5430;0,213253
525,5073;0,213238
526,4715;0,213048
527,4357;0,212713
528,4000;0,212314
529,3642;0,211939
530,3284;0,211645
531,2927;0,211437
532,2569;0,211276
533,2211;0,211105
534,1854;0,210884
535,1496;0,210616
536,1138;0,21034
537,0781;0,210103
538,0423;0,20993
539,0065;0,209806
539,9708;0,209702
540,9350;0,209607
541,8992;0,209546
542,8635;0,20958
543,8277;0,209769
544,7919;0,210124
545,7562;0,210587
546,7204;0,211044
547,6846;0,211379
548,6489;0,211541
549,6131;0,211575
550,5773;0,211595
551,5416;0,211727
552,5058;0,212045
553,4700;0,212539
554,4343;0,213127
555,3985;0,213689
556,3627;0,214108
557,3270;0,214295
558,2912;0,214197
559,2554;0,213784
560,2197;0,21306
561,1839;0,212061
562,1481;0,210866
563,1124;0,209582
564,0766;0,208323
565,0408;0,207176
566,0051;0,206194
566,9693;0,20539
567,9335;0,204744
568,8978;0,204219
569,8620;0,203768
570,8262;0,203349
571,7905;0,202943
572,7547;0,202557
573,7189;0,20222
574,6832;0,201966
575,6474;0,201808
576,6116;0,201724
577,5759;0,201663
578,5401;0,201575
579,5043;0,201436
580,4686;0,20126
581,4328;0,201088
582,3970;0,200954
583,3613;0,200866
584,3255;0,200795
585,2897;0,200697
586,2540;0,200547
587,2182;0,200355
588,1824;0,200166
589,1467;0,200024
590,1109;0,199944
591,0751;0,199889
592,0394;0,199789
593,0036;0,19958
593,9678;0,199239
594,9321;0,19879
595,8963;0,198277
596,8605;0,197736
597,8248;0,197182
598,7890;0,196622
599,7532;0,196059
600,7175;0,195504
601,6817;0,194968
602,6459;0,194447
603,6102;0,193936
604,5744;0,193437
605,5386;0,192973
606,5029;0,19257
607,4671;0,192236
608,4313;0,191935
609,3956;0,191597
610,3598;0,191156
611,3240;0,190594
612,2883;0,189957
613,2525;0,189323
614,2167;0,18875
615,1810;0,188222
616,1452;0,187649
617,1094;0,186911
618,0737;0,185935
619,0379;0,184741
620,0021;0,183419
620,9664;0,182078
621,9306;0,180793
622,8948;0,179598
623,8591;0,178499
624,8233;0,177489
625,7875;0,176582
626,7518;0,175766
627,7160;0,175006
628,6802;0,17426
629,6445;0,17349
630,6087;0,17269
631,5729;0,171882
632,5372;0,17111
633,5014;0,170409
634,4656;0,169789
635,4299;0,169235
636,3941;0,168714
637,3583;0,168193
638,3226;0,167651
639,2868;0,167085
640,2510;0,166508
641,2153;0,165948
642,1795;0,165441
643,1437;0,165017
644,1080;0,164692
645,0722;0,164452
646,0364;0,164261
647,0007;0,164066
647,9649;0,163818
648,9291;0,163492
649,8934;0,163098
650,8576;0,162678
651,8218;0,16229
652,7861;0,16199
653,7503;0,161813
654,7145;0,161772
655,6788;0,161849
656,6430;0,162002
657,6072;0,162171
658,5715;0,16229
659,5357;0,16229
660,4999;0,162122
661,4642;0,16178
662,4284;0,1613
663,3926;0,160736
664,3569;0,160133
665,3211;0,159534
666,2853;0,158973
667,2496;0,158401
668,2138;0,157611
669,1780;0,15647
670,1423;0,155176
671,1065;0,153925
672,0707;0,152682
673,0350;0,151338
673,9992;0,149846
674,9634;0,14825
675,9277;0,146641
676,8919;0,145094
677,8561;0,143636
678,8204;0,142259
679,7846;0,140968
680,7488;0,139795
681,7131;0,138767
682,6773;0,137878
683,6415;0,13708
684,6058;0,13632
685,5700;0,135575
686,5342;0,134857
687,4985;0,134193
688,4627;0,133598
689,4269;0,133062
690,3912;0,132565
691,3554;0,132091
692,3196;0,131636
693,2839;0,131197
694,2481;0,130766
695,2123;0,130327
696,1766;0,129867
697,1408;0,129381
698,1050;0,128881
699,0693;0,128386
700,0335;0,127911
700,9977;0,127461
701,9620;0,127027
702,9262;0,126586
703,8904;0,126112
704,8547;0,125588
705,8189;0,125017
706,7831;0,124423
707,7474;0,12384
708,7116;0,123292
709,6758;0,122781
710,6401;0,122278
711,6043;0,121736
712,5685;0,121121
713,5328;0,120433
714,4970;0,119715
715,4612;0,118847
716,4255;0,118274
717,3897;0,117787
718,3539;0,117317
719,3182;0,116762
720,2824;0,11604
721,2466;0,115132
722,2109;0,114093
723,1751;0,113016
724,1393;0,111981
725,1036;0,111029
726,0678;0,110167
727,0320;0,109373
727,9963;0,108619
728,9605;0,107878
729,9247;0,107133
730,8890;0,106381
731,8532;0,105628
732,8174;0,104887
733,7817;0,104176
734,7459;0,103508
735,7101;0,102893
736,6744;0,102335
737,6386;0,101834
738,6028;0,101381
739,5671;0,100957
740,5313;0,100542
741,4955;0,100113
742,4598;0,0996561
743,4240;0,0991667
744,3882;0,0986465
745,3525;0,0981012
746,3167;0,0975387
747,2809;0,0969704
748,2452;0,0964108
749,2094;0,0958742
750,1736;0,0953684
751,1379;0,0948896
752,1021;0,094423
753,0663;0,0939496
754,0306;0,0934539
754,9948;0,0929306
755,9590;0,0923849
756,9233;0,0918309
757,8875;0,0912872
758,8517;0,0907726
759,8160;0,0903008
760,7802;0,0898758
761,7444;0,0894899
762,7087;0,0891281
763,6729;0,088777
764,6371;0,088434
765,6014;0,088108
766,5656;0,0878125
767,5298;0,0875513
768,4941;0,0873103
769,4583;0,0870602
770,4225;0,0867704
771,3868;0,086427
772,3510;0,0860418
773,3152;0,0856473
774,2795;0,085281
775,2437;0,0849675
776,2079;0,0847083
777,1722;0,0844831
778,1364;0,0842594
779,1006;0,0840051
780,0649;0,0836982
781,0291;0,0833322
781,9933;0,0829161
782,9576;0,0824706
783,9218;0,0820213
784,8860;0,0815912
785,8503;0,081195
786,8145;0,0808366
787,7787;0,0805123
788,7430;0,0802159
789,7072;0,0799432
790,6714;0,0796937
791,6357;0,0794686
792,5999;0,0792675
793,5641;0,079086
794,5284;0,0789157
795,4926;0,0787467
796,4568;0,0785709
797,4211;0,0783845
798,3853;0,0781877
799,3495;0,0779829
800,3138;0,0777718
801,2780;0,0775556
802,2422;0,0773375
803,2065;0,0771256
804,1707;0,076934
805,1349;0,076776
806,0992;0,0766554
807,0634;0,0765602
808,0276;0,0764651
808,9919;0,0763435
809,9561;0,0761817
810,9203;0,0759872
811,8846;0,0757832
812,8488;0,0755954
813,8130;0,0754369
814,7773;0,0753032
815,7415;0,0751772
816,7057;0,0750406
817,6700;0,0748839
818,6342;0,0747081
819,5984;0,0745222
820,5627;0,0743377
821,5269;0,0741656
822,4911;0,0740152
823,4554;0,0738917
824,4196;0,0737932
825,3839;0,0737087
826,3481;0,0736197
827,3123;0,0735082
828,2766;0,0733651
829,2408;0,0731958
830,2050;0,0730161
831,1693;0,0728429
832,1335;0,0726826
833,0977;0,0725276
834,0620;0,0723608
835,0262;0,0721656
835,9904;0,0719351
836,9547;0,071673
837,9189;0,0713894
838,8831;0,0710943
839,8474;0,0707949
840,8116;0,0704986
841,7758;0,0702167
842,7401;0,0699664
843,7043;0,0697656
844,6685;0,069625
845,6328;0,0695417
846,5970;0,0694996
847,5612;0,0694761
848,5255;0,0694506
849,4897;0,0694112
850,4539;0,0693552
851,4182;0,0692854
852,3824;0,0692059
853,3466;0,0691197
854,3109;0,069028
855,2751;0,0689325
856,2393;0,0688354
857,2036;0,0687412
858,1678;0,0686556
859,1320;0,0685847
860,0963;0,0685335
861,0605;0,0685041
862,0247;0,0684955
862,9890;0,0685046
863,9532;0,0685297
864,9174;0,0685712
865,8817;0,0686309
866,8459;0,068708
867,8101;0,0687968
868,7744;0,0688882
869,7386;0,068975
870,7028;0,0690585
871,6671;0,0691493
872,6313;0,0692613
873,5955;0,0694016
874,5598;0,0695634
875,5240;0,0697272
876,4882;0,0698711
877,4525;0,0699834
878,4167;0,0700705
879,3809;0,0701565
880,3452;0,0702755
881,3094;0,0704618
882,2736;0,0707417
883,2379;0,0711297
884,2021;0,0716286
885,1663;0,0722313
886,1306;0,0729255
887,0948;0,073699
888,0590;0,074543
889,0233;0,0754514
889,9875;0,0764138
890,9517;0,0774065
891,9160;0,0783878
892,8802;0,0793024
893,8444;0,0800934
894,8087;0,0807172
895,7729;0,0811522
896,7371;0,0813956
897,7014;0,0814531
898,6656;0,0813281
899,6298;0,0810188
900,5941;0,0805252
901,5583;0,0798616
902,5225;0,0790653
903,4868;0,0781954
904,4510;0,0773208
905,4152;0,0765035
906,3795;0,0757845
907,3437;0,07518
908,3079;0,0746864
909,2722;0,0742915
910,2364;0,0739846
911,2007;0,0737601
912,1649;0,0736165
913,1292;0,0735513
914,0934;0,0735582
915,0576;0,0736272
916,0219;0,0737479
916,9861;0,0739123
917,9503;0,0741148
918,9146;0,0743507
919,8788;0,0746128
920,8430;0,0748897
921,8073;0,0751667
922,7715;0,075429
923,7357;0,0756655
924,7000;0,0758725
925,6642;0,0760547
926,6284;0,0762242
927,5927;0,0763961
928,5569;0,0765845
929,5211;0,0767975
930,4854;0,0770358
931,4496;0,0772936
932,4138;0,0775625
933,3781;0,0778359
934,3423;0,0781138
935,3065;0,078404
936,2708;0,0787217
937,2350;0,0790845
938,1992;0,0795072
939,1635;0,0799971
940,1277;0,0805539
941,0919;0,0811729
942,0562;0,0818506
943,0204;0,0825878
943,9846;0,0833889
944,9489;0,0842577
945,9131;0,0851933
946,8773;0,0861891
947,8416;0,0872377
948,8058;0,088337
949,7700;0,0894943
950,7343;0,0907251
951,6985;0,0920465
952,6627;0,0934697
953,6270;0,0949937
954,5912;0,0966062
955,5554;0,0982887
956,5197;0,100026
957,4839;0,101812
958,4481;0,10365
959,4124;0,105548
960,3766;0,107506
961,3408;0,109512
962,3051;0,111541
963,2693;0,113572
964,2335;0,11559
965,1978;0,117603
966,1620;0,119634
967,1262;0,12171
968,0905;0,123854
969,0547;0,126083
970,0189;0,12841
970,9832;0,130851
971,9474;0,133433
972,9116;0,13619
973,8759;0,13916
974,8401;0,142376
975,8043;0,145861
976,7686;0,149619
977,7328;0,15363
978,6970;0,157844
979,6613;0,162182
980,6255;0,166533
981,5897;0,170771
982,5540;0,174768
983,5182;0,178413
984,4824;0,181631
985,4467;0,184399
986,4109;0,186741
987,3751;0,188722
988,3394;0,190423
989,3036;0,191916
990,2678;0,193249
991,2321;0,194445
992,1963;0,195516
993,1605;0,196483
994,1248;0,197383
995,0890;0,198269
996,0532;0,19919
997,0175;0,200173
997,9817;0,201213
998,9459;0,202283
999,9102;0,203348
1000,8744;0,204394
1001,8386;0,205434
1002,8029;0,206505
1003,7671;0,207656
1004,7313;0,208933
1005,6956;0,210372
1006,6598;0,212003
1007,6240;0,213851
1008,5883;0,215935
1009,5525;0,218255
1010,5167;0,220792
1011,4810;0,223498
1012,4452;0,226316
1013,4094;0,229186
1014,3737;0,232065
1015,3379;0,234922
1016,3021;0,237732
1017,2664;0,24047
1018,2306;0,243108
1019,1948;0,245622
1020,1591;0,248006
1021,1233;0,250273
1022,0875;0,252455
1023,0518;0,254585
1024,0160;0,256685
1024,9802;0,258752
1025,9445;0,260755
1026,9087;0,262641
1027,8729;0,26434
1028,8372;0,265772
1029,8014;0,266851
1030,7656;0,267489
1031,7299;0,267601
1032,6941;0,267115
1033,6583;0,266
1034,6226;0,264286
1035,5868;0,262077
1036,5510;0,259543
1037,5153;0,256901
1038,4795;0,254367
1039,4437;0,252122
1040,4080;0,250282
1041,3722;0,248886
1042,3364;0,247908
1043,3007;0,247268
1044,2649;0,246858
1045,2291;0,246564
1046,1934;0,246281
1047,1576;0,24592
1048,1218;0,245412
1049,0861;0,244704
1050,0503;0,243755
1051,0145;0,242541
1051,9788;0,241052
1052,9430;0,239301
1053,9072;0,237316
1054,8715;0,235123
1055,8357;0,232728
1056,7999;0,230103
1057,7642;0,227185
1058,7284;0,223901
1059,6926;0,220209
1060,6569;0,216132
1061,6211;0,211772
1062,5853;0,207292
1063,5496;0,202874
1064,5138;0,198676
1065,4780;0,194794
1066,4423;0,19126
1067,4065;0,188055
1068,3707;0,185131
1069,3350;0,182442
1070,2992;0,179944
1071,2634;0,177602
1072,2277;0,175383
1073,1919;0,173244
1074,1561;0,171144
1075,1204;0,169043
1076,0846;0,166915
1077,0488;0,164762
1078,0131;0,162608
1078,9773;0,160507
1079,9415;0,15852
1080,9058;0,156706
1081,8700;0,155104
1082,8342;0,153726
1083,7985;0,152555
1084,7627;0,151555
1085,7269;0,150683
1086,6912;0,149903
1087,6554;0,149195
1088,6196;0,148558
1089,5839;0,148008
1090,5481;0,147566
1091,5123;0,14725
1092,4766;0,147063
1093,4408;0,146992
1094,4050;0,147014
1095,3693;0,147114
1096,3335;0,147285
1097,2977;0,147535
1098,2620;0,147871
1099,2262;0,148287
1100,1904;0,148753
1101,1547;0,149218
1102,1189;0,149618
1103,0831;0,1499
1104,0474;0,150033
1105,0116;0,150011
1105,9758;0,149849
1106,9401;0,149567
1107,9043;0,149173
1108,8685;0,148653
1109,8328;0,147972
1110,7970;0,147084
1111,7612;0,145954
1112,7255;0,144577
1113,6897;0,142994
1114,6539;0,141284
1115,6182;0,13955
1116,5824;0,137888
1117,5466;0,136361
1118,5109;0,134986
1119,4751;0,13373
1120,4393;0,132522
1121,4036;0,131269
1122,3678;0,129882
1123,3320;0,128286
1124,2963;0,126437
1125,2605;0,124329
1126,2247;0,121988
1127,1890;0,119465
1128,1532;0,116823
1129,1174;0,114126
1130,0817;0,111429
1131,0459;0,108777
1132,0101;0,106208
1132,9744;0,10376
1133,9386;0,101474
1134,9028;0,0993895
1135,8671;0,0975445
1136,8313;0,0959657
1137,7955;0,0946667
1138,7598;0,093647
1139,7240;0,0928944
1140,6882;0,0923866
1141,6525;0,0920945
1142,6167;0,0919839
1143,5809;0,0920202
1144,5452;0,0921725
1145,5094;0,0924189
1146,4736;0,0927489
1147,4379;0,0931623
1148,4021;0,0936648
1149,3663;0,0942603
1150,3306;0,0949439
1151,2948;0,0956965
1152,2590;0,0964852
1153,2233;0,0972669
1154,1875;0,0979951
1155,1517;0,0986236
1156,1160;0,0991077
1157,0802;0,0993991
1158,0444;0,0994406
1159,0087;0,0991639
1159,9729;0,0984948
1160,9371;0,0973669
1161,9014;0,0957397
1162,8656;0,0936144
1163,8298;0,0910404
1164,7941;0,0881108
1165,7583;0,0849475
1166,7225;0,0816832
1167,6868;0,0784429
1168,6510;0,0753316
1169,6152;0,0724262
1170,5795;0,0697736
1171,5437;0,0673929
1172,5079;0,0652814
1173,4722;0,0634227
1174,4364;0,0617937
1175,4006;0,0603714
1176,3649;0,059136
1177,3291;0,0580726
1178,2933;0,0571695
1179,2576;0,0564166
1180,2218;0,0558014
1181,1860;0,0553083
1182,1503;0,0549181
1183,1145;0,0546117
1184,0787;0,0543748
1185,0430;0,0542009
1186,0072;0,0540923
1186,9714;0,0540568
1187,9357;0,0541024
1188,8999;0,0542336
1189,8641;0,0544503
1190,8284;0,054751
1191,7926;0,0551359
1192,7568;0,055608
1193,7211;0,056171
1194,6853;0,0568237
1195,6495;0,0575558
1196,6138;0,0583478
1197,5780;0,0591744
1198,5422;0,0600106
1199,5065;0,0606361
1200,4707;0,0614661
1201,4349;0,0622732
1202,3992;0,0630571
1203,3634;0,0638184
1204,3276;0,064557
1205,2919;0,065271
1206,2561;0,0659591
1207,2203;0,0666233
1208,1846;0,0672726
1209,1488;0,0679243
1210,1130;0,068603
1211,0773;0,0693348
1212,0415;0,0701399
1213,0057;0,071026
1213,9700;0,071985
1214,9342;0,0729949
1215,8984;0,0740273
1216,8627;0,0750537
1217,8269;0,0760528
1218,7911;0,0770156
1219,7554;0,0779415
1220,7196;0,0788324
1221,6838;0,0796867
1222,6481;0,0804959
1223,6123;0,0812482
1224,5765;0,0819334
1225,5408;0,082549
1226,5050;0,0831012
1227,4692;0,0836013
1228,4335;0,0840603
1229,3977;0,0844843
1230,3619;0,084874
1231,3262;0,0852272
1232,2904;0,0855408
1233,2546;0,0858128
1234,2189;0,0860425
1235,1831;0,0862306
1236,1473;0,0863796
1237,1116;0,0864952
1238,0758;0,0865856
1239,0400;0,0866589
1240,0043;0,0867203
1240,9685;0,0867679
1241,9327;0,0867931
1242,8970;0,0867822
1243,8612;0,0867214
1244,8254;0,0866004
1245,7897;0,0864158
1246,7539;0,0861722
1247,7181;0,0858802
1248,6824;0,0855533
1249,6466;0,0852041
1250,6108;0,0848421
1251,5751;0,0844732
1252,5393;0,0841025
1253,5035;0,0837365
1254,4678;0,0833829
1255,4320;0,0830475
1256,3962;0,0827289
1257,3605;0,0824158
1258,3247;0,082089
1259,2889;0,0817287
1260,2532;0,0813225
1261,2174;0,0808688
1262,1816;0,0803749
1263,1459;0,0798485
1264,1101;0,0792917
1265,0743;0,0786996
1266,0386;0,0780622
1267,0028;0,0773701
1267,9670;0,0766174
1268,9313;0,0758038
1269,8955;0,074934
1270,8597;0,0740169
1271,8240;0,0730646
1272,7882;0,0720899
1273,7524;0,0711062
1274,7167;0,0701262
1275,6809;0,0691634
1276,6451;0,0682303
1277,6094;0,0673369
1278,5736;0,0664859
1279,5378;0,0656713
1280,5021;0,0648813
1281,4663;0,0641052
1282,4305;0,063341
1283,3948;0,0625982
1284,3590;0,0618949
1285,3232;0,0612511
1286,2875;0,0606822
1287,2517;0,060196
1288,2159;0,0597931
1289,1802;0,0594697
1290,1444;0,059221
1291,1086;0,059043
1292,0729;0,058935
1293,0371;0,0588994
1294,0013;0,0589424
1294,9656;0,0590705
1295,9298;0,0592875
1296,8940;0,0595911
1297,8583;0,0599731
1298,8225;0,0604226
1299,7867;0,0609307
1300,7510;0,0614929
1301,7152;0,0621117
1302,6794;0,0627891
1303,6437;0,0635234
1304,6079;0,0643082
1305,5721;0,0651321
1306,5364;0,0659836
1307,5006;0,0668551
1308,4648;0,0677449
1309,4291;0,068652
1310,3933;0,0695684
1311,3575;0,0704722
1312,3218;0,0713282
1313,2860;0,0720967
1314,2502;0,0727449
1315,2145;0,0732511
1316,1787;0,0735997
1317,1429;0,0737763
1318,1072;0,0737704
1319,0714;0,0735895
1320,0356;0,0732689
1320,9999;0,0728676
1321,9641;0,0724475
1322,9283;0,0720548
1323,8926;0,0717132
1324,8568;0,071429
1325,8210;0,0711991
1326,7853;0,0710171
1327,7495;0,0708723
1328,7137;0,0707483
1329,6780;0,0706219
1330,6422;0,0704689
1331,6064;0,0702746
1332,5707;0,0700393
1333,5349;0,0697795
1334,4991;0,069514
1335,4634;0,0692473
1336,4276;0,0689549
1337,3918;0,068579
1338,3561;0,0680518
1339,3203;0,0673493
1340,2845;0,0665338
1341,2488;0,0657241
1342,2130;0,0650192
1343,1772;0,064457
1344,1415;0,064029
1345,1057;0,0637111
1346,0699;0,0634837
1347,0342;0,0633363
1347,9984;0,0632689
1348,9626;0,0632878
1349,9269;0,063399
1350,8911;0,0636
1351,8553;0,0638759
1352,8196;0,0642045
1353,7838;0,064566
1354,7480;0,0649533
1355,7123;0,0653741
1356,6765;0,0658437
1357,6407;0,0663733
1358,6050;0,0669645
1359,5692;0,0676063
1360,5334;0,0682646
