TITLE;
DATA TYPE;INFRARED SPECTRUM
ORIGIN;JASCO
OWNER;
DATE;25/02/28
TIME;15:36:36
SPECTROMETER/DATA SYSTEM;
LOCALE;9226
RESOLUTION;
DELTAX;0,964233
XUNITS;1/CM
YUNITS;ABSORBANCE
FIRSTX;  399,1927
LASTX; 4000,6047
NPOINTS;    3736
FIRSTY;     0,15071
MAXY;     0,17904
MINY;    -0,00321
XYDATA
399,1927;0,150711
400,1569;0,150197
401,1211;0,149041
402,0854;0,147624
403,0496;0,146319
404,0138;0,145349
404,9781;0,144748
405,9423;0,144399
406,9065;0,144125
407,8708;0,1438
408,8350;0,143397
409,7992;0,142977
410,7635;0,142646
411,7277;0,142539
412,6919;0,142797
413,6562;0,143526
414,6204;0,144759
415,5846;0,146402
416,5489;0,148155
417,5131;0,149451
418,4773;0,149681
419,4416;0,14884
420,4058;0,14776
421,3700;0,147314
422,3343;0,147761
423,2985;0,148833
424,2627;0,150054
425,2270;0,150965
426,1912;0,151317
427,1554;0,151145
428,1197;0,150705
429,0839;0,150297
430,0481;0,150144
431,0124;0,150344
431,9766;0,150903
432,9408;0,151759
433,9051;0,152797
434,8693;0,153843
435,8335;0,154683
436,7978;0,155152
437,7620;0,155218
438,7262;0,155005
439,6905;0,154721
440,6547;0,154537
441,6189;0,154496
442,5832;0,154493
443,5474;0,154356
444,5116;0,154002
445,4759;0,153528
446,4401;0,153175
447,4043;0,153178
448,3686;0,153631
449,3328;0,15442
450,2970;0,155257
451,2613;0,155809
452,2255;0,15587
453,1897;0,15546
454,1540;0,154807
455,1182;0,154221
456,0824;0,153948
457,0467;0,154029
458,0109;0,154257
458,9751;0,154307
459,9394;0,153983
460,9036;0,153358
461,8678;0,152694
462,8321;0,15229
463,7963;0,152338
464,7605;0,152841
465,7248;0,153587
466,6890;0,154243
467,6532;0,154524
468,6175;0,154318
469,5817;0,153717
470,5459;0,15295
471,5102;0,152282
472,4744;0,151881
473,4386;0,15173
474,4029;0,151658
475,3671;0,151466
476,3313;0,15106
477,2956;0,150489
478,2598;0,149917
479,2240;0,149546
480,1883;0,149515
481,1525;0,149827
482,1167;0,150335
483,0810;0,150806
484,0452;0,151034
485,0094;0,150935
485,9737;0,15057
486,9379;0,150071
487,9021;0,149558
488,8664;0,149109
489,8306;0,148776
490,7948;0,148622
491,7591;0,148712
492,7233;0,149059
493,6875;0,149579
494,6518;0,150101
495,6160;0,150446
496,5802;0,150511
497,5445;0,150319
498,5087;0,149993
499,4729;0,149691
500,4372;0,149542
501,4014;0,149589
502,3656;0,149788
503,3299;0,150045
504,2941;0,15027
505,2583;0,150412
506,2226;0,150458
507,1868;0,150423
508,1510;0,150342
509,1153;0,150259
510,0795;0,150228
511,0437;0,150294
512,0080;0,150489
512,9722;0,150812
513,9365;0,151233
514,9007;0,151687
515,8649;0,152078
516,8292;0,152308
517,7934;0,152326
518,7576;0,152173
519,7219;0,151977
520,6861;0,151888
521,6503;0,151992
522,6146;0,152276
523,5788;0,152624
524,5430;0,152865
525,5073;0,152841
526,4715;0,152505
527,4357;0,151946
528,4000;0,151336
529,3642;0,150822
530,3284;0,15047
531,2927;0,150264
532,2569;0,150149
533,2211;0,150069
534,1854;0,149992
535,1496;0,1499
536,1138;0,149772
537,0781;0,149567
538,0423;0,149246
539,0065;0,148798
539,9708;0,14827
540,9350;0,14776
541,8992;0,147381
542,8635;0,147214
543,8277;0,147274
544,7919;0,147506
545,7562;0,147807
546,7204;0,148071
547,6846;0,148224
548,6489;0,148254
549,6131;0,148203
550,5773;0,148145
551,5416;0,148155
552,5058;0,148274
553,4700;0,148481
554,4343;0,148697
555,3985;0,14881
556,3627;0,148722
557,3270;0,148395
558,2912;0,147862
559,2554;0,147205
560,2197;0,146516
561,1839;0,145859
562,1481;0,145258
563,1124;0,144713
564,0766;0,144212
565,0408;0,143745
566,0051;0,143296
566,9693;0,142848
567,9335;0,142385
568,8978;0,141909
569,8620;0,141453
570,8262;0,141068
571,7905;0,140801
572,7547;0,140667
573,7189;0,14064
574,6832;0,140652
575,6474;0,140622
576,6116;0,14049
577,5759;0,140238
578,5401;0,139897
579,5043;0,139522
580,4686;0,139162
581,4328;0,138842
582,3970;0,138552
583,3613;0,138272
584,3255;0,137993
585,2897;0,137736
586,2540;0,137551
587,2182;0,137487
588,1824;0,137562
589,1467;0,137744
590,1109;0,137952
591,0751;0,138093
592,0394;0,138104
593,0036;0,137983
593,9678;0,137779
594,9321;0,137555
595,8963;0,137343
596,8605;0,137132
597,8248;0,136879
598,7890;0,136547
599,7532;0,136138
600,7175;0,135694
601,6817;0,135276
602,6459;0,134932
603,6102;0,134678
604,5744;0,134497
605,5386;0,134351
606,5029;0,134182
607,4671;0,133929
608,4313;0,133532
609,3956;0,132973
610,3598;0,132303
611,3240;0,131652
612,2883;0,131187
613,2525;0,131032
614,2167;0,131179
615,1810;0,131456
616,1452;0,131571
617,1094;0,131243
618,0737;0,130357
619,0379;0,129032
620,0021;0,127549
620,9664;0,126199
621,9306;0,125154
622,8948;0,124425
623,8591;0,123903
624,8233;0,123383
625,7875;0,122873
626,7518;0,122355
627,7160;0,121873
628,6802;0,121475
629,6445;0,121178
630,6087;0,120948
631,5729;0,12073
632,5372;0,120477
633,5014;0,120176
634,4656;0,119863
635,4299;0,119594
636,3941;0,119412
637,3583;0,119325
638,3226;0,119294
639,2868;0,119257
640,2510;0,119158
641,2153;0,118975
642,1795;0,118732
643,1437;0,118487
644,1080;0,1183
645,0722;0,118201
646,0364;0,118176
647,0007;0,118179
647,9649;0,118156
648,9291;0,118075
649,8934;0,117942
650,8576;0,117795
651,8218;0,117677
652,7861;0,117629
653,7503;0,117673
654,7145;0,117808
655,6788;0,118006
656,6430;0,118218
657,6072;0,1184
658,5715;0,118528
659,5357;0,118597
660,4999;0,118576
661,4642;0,118375
662,4284;0,117837
663,3926;0,116799
664,3569;0,115224
665,3211;0,113419
666,2853;0,112131
667,2496;0,112164
668,2138;0,113368
669,1780;0,114555
670,1423;0,115085
671,1065;0,115085
672,0707;0,114622
673,0350;0,113676
673,9992;0,112374
674,9634;0,110974
675,9277;0,109697
676,8919;0,108611
677,8561;0,107647
678,8204;0,106707
679,7846;0,10575
680,7488;0,104806
681,7131;0,103932
682,6773;0,103164
683,6415;0,102503
684,6058;0,101925
685,5700;0,101399
686,5342;0,100895
687,4985;0,100395
688,4627;0,0999022
689,4269;0,0994183
690,3912;0,0989598
691,3554;0,0985423
692,3196;0,0981629
693,2839;0,0977934
694,2481;0,0973935
695,2123;0,0969343
696,1766;0,0964174
697,1408;0,0958762
698,1050;0,0953575
699,0693;0,0948973
700,0335;0,0945038
700,9977;0,0941584
701,9620;0,0938316
702,9262;0,0935002
703,8904;0,0931367
704,8547;0,0927524
705,8189;0,0923583
706,7831;0,0919568
707,7474;0,0915397
708,7116;0,0910938
709,6758;0,0906092
710,6401;0,0900799
711,6043;0,0895037
712,5685;0,0888858
713,5328;0,0882495
714,4970;0,0876429
715,4612;0,085948
716,4255;0,0858176
717,3897;0,0858967
718,3539;0,0860171
719,3182;0,0859285
720,2824;0,0854229
721,2466;0,0844605
722,2109;0,0831983
723,1751;0,0818954
724,1393;0,0807721
725,1036;0,0799207
726,0678;0,0793024
727,0320;0,0788069
727,9963;0,0783263
728,9605;0,0778014
729,9247;0,0772247
730,8890;0,0766158
731,8532;0,0759979
732,8174;0,0753908
733,7817;0,0748153
734,7459;0,0742953
735,7101;0,0738499
736,6744;0,0734837
737,6386;0,0731829
738,6028;0,0729218
739,5671;0,0726737
740,5313;0,0724189
741,4955;0,0721464
742,4598;0,0718526
743,4240;0,071539
744,3882;0,0712122
745,3525;0,0708811
746,3167;0,0705533
747,2809;0,0702306
748,2452;0,0699091
749,2094;0,0695837
750,1736;0,0692528
751,1379;0,0689201
752,1021;0,0685905
753,0663;0,0682647
754,0306;0,0679379
754,9948;0,0676033
755,9590;0,067258
756,9233;0,0669057
757,8875;0,0665557
758,8517;0,0662172
759,8160;0,0658971
760,7802;0,065599
761,7444;0,0653237
762,7087;0,065068
763,6729;0,0648222
764,6371;0,0645721
765,6014;0,0643045
766,5656;0,064016
767,5298;0,0637172
768,4941;0,0634263
769,4583;0,0631553
770,4225;0,0628983
771,3868;0,0626317
772,3510;0,0623284
773,3152;0,0619783
774,2795;0,0615993
775,2437;0,0612313
776,2079;0,0609149
777,1722;0,0606689
778,1364;0,0604789
779,1006;0,0603056
780,0649;0,0601053
781,0291;0,05985
781,9933;0,0595367
782,9576;0,0591838
783,9218;0,0588182
784,8860;0,058464
785,8503;0,0581361
786,8145;0,0578405
787,7787;0,0575769
788,7430;0,0573418
789,7072;0,0571298
790,6714;0,0569351
791,6357;0,0567532
792,5999;0,056581
793,5641;0,0564152
794,5284;0,0562491
795,4926;0,0560712
796,4568;0,0558691
797,4211;0,055638
798,3853;0,0553883
799,3495;0,0551459
800,3138;0,0549426
801,2780;0,054799
802,2422;0,0547113
803,2065;0,0546493
804,1707;0,0545696
805,1349;0,0544353
806,0992;0,0542334
807,0634;0,0539797
808,0276;0,0537086
808,9919;0,0534561
809,9561;0,0532448
810,9203;0,0530777
811,8846;0,0529446
812,8488;0,0528324
813,8130;0,0527346
814,7773;0,0526534
815,7415;0,0525939
816,7057;0,052556
817,6700;0,0525303
818,6342;0,0525007
819,5984;0,052453
820,5627;0,0523837
821,5269;0,0523035
822,4911;0,0522331
823,4554;0,0521929
824,4196;0,0521931
825,3839;0,052229
826,3481;0,0522837
827,3123;0,0523358
828,2766;0,0523683
829,2408;0,0523735
830,2050;0,052353
831,1693;0,0523122
832,1335;0,0522549
833,0977;0,0521795
834,0620;0,0520797
835,0262;0,0519491
835,9904;0,0517858
836,9547;0,0515965
837,9189;0,0513956
838,8831;0,0512003
839,8474;0,0510243
840,8116;0,0508725
841,7758;0,0507403
842,7401;0,0506171
843,7043;0,050494
844,6685;0,0503691
845,6328;0,0502493
846,5970;0,0501455
847,5612;0,050065
848,5255;0,0500046
849,4897;0,0499498
850,4539;0,0498811
851,4182;0,0497853
852,3824;0,0496649
853,3466;0,0495402
854,3109;0,0494413
855,2751;0,0493942
856,2393;0,0494074
857,2036;0,0494683
858,1678;0,0495498
859,1320;0,0496256
860,0963;0,0496819
861,0605;0,0497225
862,0247;0,0497619
862,9890;0,0498145
863,9532;0,0498859
864,9174;0,0499717
865,8817;0,0500631
866,8459;0,0501535
867,8101;0,0502425
868,7744;0,0503338
869,7386;0,0504313
870,7028;0,0505341
871,6671;0,0506352
872,6313;0,0507222
873,5955;0,050781
874,5598;0,0508001
875,5240;0,0507767
876,4882;0,0507202
877,4525;0,0506517
878,4167;0,0505985
879,3809;0,0505853
880,3452;0,0506272
881,3094;0,0507285
882,2736;0,0508869
883,2379;0,0511009
884,2021;0,0513736
885,1663;0,0517123
886,1306;0,0521239
887,0948;0,0526096
888,0590;0,0531636
889,0233;0,0537724
889,9875;0,0544177
890,9517;0,0550782
891,9160;0,0557308
892,8802;0,0563522
893,8444;0,0569194
894,8087;0,0574109
895,7729;0,0578073
896,7371;0,0580932
897,7014;0,0582604
898,6656;0,0583112
899,6298;0,0582602
900,5941;0,0581316
901,5583;0,057953
902,5225;0,0577473
903,4868;0,0575277
904,4510;0,0572982
905,4152;0,0570601
906,3795;0,05682
907,3437;0,0565958
908,3079;0,0564161
909,2722;0,056313
910,2364;0,0563096
911,2007;0,0564108
912,1649;0,0565996
913,1292;0,056844
914,0934;0,0571116
915,0576;0,0573836
916,0219;0,0576619
916,9861;0,0579634
917,9503;0,0583054
918,9146;0,0586911
919,8788;0,0591029
920,8430;0,0595092
921,8073;0,0598781
922,7715;0,0601916
923,7357;0,0604512
924,7000;0,0606729
925,6642;0,0608755
926,6284;0,061069
927,5927;0,0612495
928,5569;0,0614027
929,5211;0,0615121
930,4854;0,0615689
931,4496;0,0615771
932,4138;0,0615526
933,3781;0,061518
934,3423;0,0614965
935,3065;0,0615067
936,2708;0,0615624
937,2350;0,0616732
938,1992;0,0618452
939,1635;0,0620805
940,1277;0,0623762
941,0919;0,0627247
942,0562;0,0631168
943,0204;0,0635447
943,9846;0,0640055
944,9489;0,0645009
945,9131;0,065035
946,8773;0,0656136
947,8416;0,0662435
948,8058;0,0669346
949,7700;0,0676992
950,7343;0,0685494
951,6985;0,0694929
952,6627;0,0705297
953,6270;0,0716531
954,5912;0,072854
955,5554;0,0741244
956,5197;0,0754588
957,4839;0,076851
958,4481;0,0782912
959,4124;0,0797656
960,3766;0,081261
961,3408;0,0827699
962,3051;0,0842934
963,2693;0,0858395
964,2335;0,0874176
965,1978;0,089034
966,1620;0,0906909
967,1262;0,0923893
968,0905;0,0941328
969,0547;0,0959302
970,0189;0,0977958
970,9832;0,0997485
971,9474;0,101811
972,9116;0,104007
973,8759;0,106361
974,8401;0,108885
975,8043;0,111582
976,7686;0,114435
977,7328;0,117416
978,6970;0,120487
979,6613;0,123603
980,6255;0,126707
981,5897;0,129731
982,5540;0,132593
983,5182;0,135214
984,4824;0,137537
985,4467;0,139543
986,4109;0,141256
987,3751;0,142729
988,3394;0,144021
989,3036;0,145175
990,2678;0,146213
991,2321;0,147141
992,1963;0,147963
993,1605;0,148685
994,1248;0,149325
995,0890;0,149896
996,0532;0,150407
997,0175;0,150862
997,9817;0,151258
998,9459;0,151599
999,9102;0,151902
1000,8744;0,152193
1001,8386;0,152508
1002,8029;0,152889
1003,7671;0,153378
1004,7313;0,154017
1005,6956;0,15484
1006,6598;0,155878
1007,6240;0,157147
1008,5883;0,158654
1009,5525;0,160386
1010,5167;0,162312
1011,4810;0,164376
1012,4452;0,166498
1013,4094;0,168582
1014,3737;0,170529
1015,3379;0,172254
1016,3021;0,173706
1017,2664;0,174873
1018,2306;0,175774
1019,1948;0,176446
1020,1591;0,17693
1021,1233;0,177267
1022,0875;0,177497
1023,0518;0,177665
1024,0160;0,177818
1024,9802;0,177997
1025,9445;0,17822
1026,9087;0,178477
1027,8729;0,178732
1028,8372;0,178936
1029,8014;0,179036
1030,7656;0,178983
1031,7299;0,178736
1032,6941;0,178263
1033,6583;0,177546
1034,6226;0,176588
1035,5868;0,175432
1036,5510;0,174153
1037,5153;0,172853
1038,4795;0,171637
1039,4437;0,170588
1040,4080;0,169751
1041,3722;0,169129
1042,3364;0,168688
1043,3007;0,168371
1044,2649;0,168116
1045,2291;0,167867
1046,1934;0,167578
1047,1576;0,167213
1048,1218;0,166741
1049,0861;0,166131
1050,0503;0,165355
1051,0145;0,164395
1051,9788;0,163254
1052,9430;0,161953
1053,9072;0,160528
1054,8715;0,159011
1055,8357;0,157412
1056,7999;0,155716
1057,7642;0,153881
1058,7284;0,151863
1059,6926;0,149634
1060,6569;0,147204
1061,6211;0,144627
1062,5853;0,141989
1063,5496;0,139392
1064,5138;0,136931
1065,4780;0,13467
1066,4423;0,13264
1067,4065;0,130839
1068,3707;0,129239
1069,3350;0,1278
1070,2992;0,126479
1071,2634;0,125226
1072,2277;0,123994
1073,1919;0,122736
1074,1561;0,121412
1075,1204;0,119994
1076,0846;0,118476
1077,0488;0,116869
1078,0131;0,115205
1078,9773;0,113523
1079,9415;0,111865
1080,9058;0,110269
1081,8700;0,108767
1082,8342;0,107381
1083,7985;0,106129
1084,7627;0,105018
1085,7269;0,104048
1086,6912;0,103213
1087,6554;0,102505
1088,6196;0,101914
1089,5839;0,101429
1090,5481;0,101044
1091,5123;0,100751
1092,4766;0,100551
1093,4408;0,100445
1094,4050;0,100436
1095,3693;0,100524
1096,3335;0,100699
1097,2977;0,100943
1098,2620;0,101231
1099,2262;0,101532
1100,1904;0,101818
1101,1547;0,102056
1102,1189;0,102218
1103,0831;0,10228
1104,0474;0,102231
1105,0116;0,102078
1105,9758;0,101843
1106,9401;0,101552
1107,9043;0,10122
1108,8685;0,100837
1109,8328;0,100367
1110,7970;0,0997628
1111,7612;0,0989839
1112,7255;0,0980207
1113,6897;0,0969033
1114,6539;0,0956963
1115,6182;0,094482
1116,5824;0,093337
1117,5466;0,0923129
1118,5109;0,0914243
1119,4751;0,0906466
1120,4393;0,0899231
1121,4036;0,0891786
1122,3678;0,0883386
1123,3320;0,0873472
1124,2963;0,0861798
1125,2605;0,084845
1126,2247;0,0833761
1127,1890;0,0818156
1128,1532;0,0802014
1129,1174;0,0785605
1130,0817;0,0769113
1131,0459;0,0752706
1132,0101;0,0736606
1132,9744;0,0721099
1133,9386;0,0706518
1134,9028;0,0693193
1135,8671;0,0681417
1136,8313;0,0671419
1137,7955;0,066334
1138,7598;0,0657205
1139,7240;0,0652909
1140,6882;0,0650231
1141,6525;0,0648887
1142,6167;0,064861
1143,5809;0,0649199
1144,5452;0,0650535
1145,5094;0,0652544
1146,4736;0,0655148
1147,4379;0,0658241
1148,4021;0,0661696
1149,3663;0,0665387
1150,3306;0,0669208
1151,2948;0,0673061
1152,2590;0,0676816
1153,2233;0,0680285
1154,1875;0,0683208
1155,1517;0,0685271
1156,1160;0,0686131
1157,0802;0,0685429
1158,0444;0,0682788
1159,0087;0,0677809
1159,9729;0,0670086
1160,9371;0,0659273
1161,9014;0,064518
1162,8656;0,0627876
1163,8298;0,0607739
1164,7941;0,0585428
1165,7583;0,056179
1166,7225;0,0537729
1167,6868;0,051409
1168,6510;0,0491583
1169,6152;0,0470735
1170,5795;0,0451874
1171,5437;0,0435126
1172,5079;0,0420426
1173,4722;0,0407573
1174,4364;0,03963
1175,4006;0,0386366
1176,3649;0,0377615
1177,3291;0,0369985
1178,2933;0,0363466
1179,2576;0,0358036
1180,2218;0,0353612
1181,1860;0,0350051
1182,1503;0,0347195
1183,1145;0,0344921
1184,0787;0,0343176
1185,0430;0,0341969
1186,0072;0,0341333
1186,9714;0,0341298
1187,9357;0,034188
1188,8999;0,0343094
1189,8641;0,0344966
1190,8284;0,034753
1191,7926;0,0350801
1192,7568;0,0354756
1193,7211;0,0359321
1194,6853;0,0364393
1195,6495;0,0369863
1196,6138;0,0375624
1197,5780;0,038157
1198,5422;0,0387591
1199,5065;0,039166
1200,4707;0,0397737
1201,4349;0,0403662
1202,3992;0,0409432
1203,3634;0,0415065
1204,3276;0,0420552
1205,2919;0,0425849
1206,2561;0,0430902
1207,2203;0,0435711
1208,1846;0,0440378
1209,1488;0,0445095
1210,1130;0,0450096
1211,0773;0,0455576
1212,0415;0,0461645
1213,0057;0,0468322
1213,9700;0,0475556
1214,9342;0,0483261
1215,8984;0,049132
1216,8627;0,0499579
1217,8269;0,0507851
1218,7911;0,0515977
1219,7554;0,0523851
1220,7196;0,0531433
1221,6838;0,0538723
1222,6481;0,0545717
1223,6123;0,0552381
1224,5765;0,0558662
1225,5408;0,056453
1226,5050;0,0570013
1227,4692;0,0575181
1228,4335;0,0580105
1229,3977;0,0584799
1230,3619;0,0589198
1231,3262;0,0593191
1232,2904;0,059667
1233,2546;0,0599581
1234,2189;0,0601926
1235,1831;0,0603753
1236,1473;0,0605127
1237,1116;0,0606115
1238,0758;0,0606781
1239,0400;0,0607179
1240,0043;0,0607333
1240,9685;0,0607217
1241,9327;0,0606758
1242,8970;0,060586
1243,8612;0,0604442
1244,8254;0,0602475
1245,7897;0,0599994
1246,7539;0,0597079
1247,7181;0,0593831
1248,6824;0,0590344
1249,6466;0,0586685
1250,6108;0,0582894
1251,5751;0,0578994
1252,5393;0,0575017
1253,5035;0,0571025
1254,4678;0,0567106
1255,4320;0,0563341
1256,3962;0,0559739
1257,3605;0,0556196
1258,3247;0,0552511
1259,2889;0,0548456
1260,2532;0,054388
1261,2174;0,0538782
1262,1816;0,0533301
1263,1459;0,0527643
1264,1101;0,0521983
1265,0743;0,0516405
1266,0386;0,0510893
1267,0028;0,0505363
1267,9670;0,0499703
1268,9313;0,0493822
1269,8955;0,0487672
1270,8597;0,0481273
1271,8240;0,0474701
1272,7882;0,0468075
1273,7524;0,0461528
1274,7167;0,0455186
1275,6809;0,0449151
1276,6451;0,0443478
1277,6094;0,0438154
1278,5736;0,0433087
1279,5378;0,0428131
1280,5021;0,042316
1281,4663;0,0418138
1282,4305;0,0413163
1283,3948;0,0408427
1284,3590;0,0404129
1285,3232;0,0400388
1286,2875;0,0397203
1287,2517;0,0394483
1288,2159;0,0392119
1289,1802;0,0390048
1290,1444;0,0388282
1291,1086;0,0386889
1292,0729;0,0385956
1293,0371;0,0385559
1294,0013;0,0385752
1294,9656;0,038655
1295,9298;0,0387935
1296,8940;0,038986
1297,8583;0,0392272
1298,8225;0,0395136
1299,7867;0,0398446
1300,7510;0,0402214
1301,7152;0,0406469
1302,6794;0,04112
1303,6437;0,0416347
1304,6079;0,0421827
1305,5721;0,0427548
1306,5364;0,0433446
1307,5006;0,0439513
1308,4648;0,0445786
1309,4291;0,0452304
1310,3933;0,0459037
1311,3575;0,0465831
1312,3218;0,0472412
1313,2860;0,0478459
1314,2502;0,0483693
1315,2145;0,0487914
1316,1787;0,0490963
1317,1429;0,0492677
1318,1072;0,0492913
1319,0714;0,0491671
1320,0356;0,0489213
1320,9999;0,0486053
1321,9641;0,0482789
1322,9283;0,0479909
1323,8926;0,0477681
1324,8568;0,0476147
1325,8210;0,0475191
1326,7853;0,0474616
1327,7495;0,047421
1328,7137;0,047379
1329,6780;0,047321
1330,6422;0,0472389
1331,6064;0,0471346
1332,5707;0,0470204
1333,5349;0,0469178
1334,4991;0,0468457
1335,4634;0,0468059
1336,4276;0,0467676
1337,3918;0,0466597
1338,3561;0,0463909
1339,3203;0,0459063
1340,2845;0,0452423
1341,2488;0,044513
1342,2130;0,0438374
1343,1772;0,043284
1344,1415;0,0428697
1345,1057;0,0425835
1346,0699;0,042407
1347,0342;0,0423228
1347,9984;0,0423189
1348,9626;0,0423892
1349,9269;0,0425303
1350,8911;0,0427374
1351,8553;0,0430008
1352,8196;0,043307
1353,7838;0,0436427
1354,7480;0,0440003
1355,7123;0,0443823
