TITLE;
DATA TYPE;INFRARED SPECTRUM
ORIGIN;JASCO
OWNER;
DATE;25/02/28
TIME;16:08:18
SPECTROMETER/DATA SYSTEM;
LOCALE;9226
RESOLUTION;
DELTAX;0,964233
XUNITS;1/CM
YUNITS;ABSORBANCE
FIRSTX;  399,1927
LASTX; 4000,6047
NPOINTS;    3736
FIRSTY;     0,15972
MAXY;     0,18022
MINY;    -0,00680
XYDATA
399,1927;0,159718
400,1569;0,15478
401,1211;0,148973
402,0854;0,144012
403,0496;0,140685
404,0138;0,139094
404,9781;0,138897
405,9423;0,139495
406,9065;0,140262
407,8708;0,140778
408,8350;0,140906
409,7992;0,140683
410,7635;0,140189
411,7277;0,139521
412,6919;0,138875
413,6562;0,13858
414,6204;0,139049
415,5846;0,140661
416,5489;0,143574
417,5131;0,147355
418,4773;0,150688
419,4416;0,152029
420,4058;0,151117
421,3700;0,149075
422,3343;0,147079
423,2985;0,145649
424,2627;0,144779
425,2270;0,14425
426,1912;0,143843
427,1554;0,143447
428,1197;0,143061
429,0839;0,142732
430,0481;0,142507
431,0124;0,142431
431,9766;0,142546
432,9408;0,142872
433,9051;0,143354
434,8693;0,143845
435,8335;0,144159
436,7978;0,144182
437,7620;0,143963
438,7262;0,143684
439,6905;0,143538
440,6547;0,143604
441,6189;0,143788
442,5832;0,143886
443,5474;0,143731
444,5116;0,143337
445,4759;0,142895
446,4401;0,142625
447,4043;0,14261
448,3686;0,142747
449,3328;0,142802
450,2970;0,142563
451,2613;0,14198
452,2255;0,141225
453,1897;0,140606
454,1540;0,140409
455,1182;0,140752
456,0824;0,141513
457,0467;0,142334
458,0109;0,142774
458,9751;0,142567
459,9394;0,141774
460,9036;0,140679
461,8678;0,139589
462,8321;0,138716
463,7963;0,138181
464,7605;0,138021
465,7248;0,138196
466,6890;0,138587
467,6532;0,139027
468,6175;0,139358
469,5817;0,139466
470,5459;0,139306
471,5102;0,138906
472,4744;0,138358
473,4386;0,137778
474,4029;0,137256
475,3671;0,136834
476,3313;0,136538
477,2956;0,136404
478,2598;0,136484
479,2240;0,136818
480,1883;0,137382
481,1525;0,138051
482,1167;0,138609
483,0810;0,138814
484,0452;0,138516
485,0094;0,137763
485,9737;0,136801
486,9379;0,135952
487,9021;0,135474
488,8664;0,135468
489,8306;0,135877
490,7948;0,136535
491,7591;0,137233
492,7233;0,137796
493,6875;0,138138
494,6518;0,138265
495,6160;0,138244
496,5802;0,138162
497,5445;0,138097
498,5087;0,138098
499,4729;0,138178
500,4372;0,138311
501,4014;0,138447
502,3656;0,13854
503,3299;0,138581
504,2941;0,138598
505,2583;0,138641
506,2226;0,138734
507,1868;0,138865
508,1510;0,138986
509,1153;0,139058
510,0795;0,139083
511,0437;0,139121
512,0080;0,139269
512,9722;0,139607
513,9365;0,140163
514,9007;0,140883
515,8649;0,141636
516,8292;0,14226
517,7934;0,142626
518,7576;0,14272
519,7219;0,142647
520,6861;0,142567
521,6503;0,1426
522,6146;0,142776
523,5788;0,143029
524,5430;0,14323
525,5073;0,14325
526,4715;0,143035
527,4357;0,14264
528,4000;0,142183
529,3642;0,141772
530,3284;0,141454
531,2927;0,141221
532,2569;0,141039
533,2211;0,140883
534,1854;0,140743
535,1496;0,140617
536,1138;0,140483
537,0781;0,14031
538,0423;0,140077
539,0065;0,139805
539,9708;0,139559
540,9350;0,139422
541,8992;0,139451
542,8635;0,13964
543,8277;0,139931
544,7919;0,140242
545,7562;0,140505
546,7204;0,140687
547,6846;0,140788
548,6489;0,140825
549,6131;0,140823
550,5773;0,140819
551,5416;0,140864
552,5058;0,141011
553,4700;0,141289
554,4343;0,141682
555,3985;0,142115
556,3627;0,142483
557,3270;0,142678
558,2912;0,142617
559,2554;0,142258
560,2197;0,141603
561,1839;0,140705
562,1481;0,139667
563,1124;0,13863
564,0766;0,137731
565,0408;0,137058
566,0051;0,136607
566,9693;0,136292
567,9335;0,135992
568,8978;0,135624
569,8620;0,135193
570,8262;0,134787
571,7905;0,134515
572,7547;0,134447
573,7189;0,134576
574,6832;0,134823
575,6474;0,135079
576,6116;0,135249
577,5759;0,135289
578,5401;0,1352
579,5043;0,135011
580,4686;0,134747
581,4328;0,134429
582,3970;0,134076
583,3613;0,133721
584,3255;0,13341
585,2897;0,133197
586,2540;0,133128
587,2182;0,133223
588,1824;0,133465
589,1467;0,133801
590,1109;0,134145
591,0751;0,134399
592,0394;0,13449
593,0036;0,134399
593,9678;0,134165
594,9321;0,133857
595,8963;0,133532
596,8605;0,133204
597,8248;0,132856
598,7890;0,132467
599,7532;0,132043
600,7175;0,131625
601,6817;0,131264
602,6459;0,130987
603,6102;0,130781
604,5744;0,130606
605,5386;0,130413
606,5029;0,130162
607,4671;0,129819
608,4313;0,129354
609,3956;0,128757
610,3598;0,128075
611,3240;0,127438
612,2883;0,127034
613,2525;0,127018
614,2167;0,127403
615,1810;0,127994
616,1452;0,128417
617,1094;0,128287
618,0737;0,127417
619,0379;0,12593
620,0021;0,124183
620,9664;0,12256
621,9306;0,121295
622,8948;0,120414
623,8591;0,11979
624,8233;0,119175
625,7875;0,118607
626,7518;0,118071
627,7160;0,117614
628,6802;0,117268
629,6445;0,117025
630,6087;0,116831
631,5729;0,116628
632,5372;0,116376
633,5014;0,116076
634,4656;0,115765
635,4299;0,115495
636,3941;0,115307
637,3583;0,115217
638,3226;0,115209
639,2868;0,115241
640,2510;0,115263
641,2153;0,115242
642,1795;0,115172
643,1437;0,115079
644,1080;0,115003
645,0722;0,114971
646,0364;0,114977
647,0007;0,114986
647,9649;0,114955
648,9291;0,114858
649,8934;0,114703
650,8576;0,114524
651,8218;0,114366
652,7861;0,114264
653,7503;0,114232
654,7145;0,114253
655,6788;0,114289
656,6430;0,114296
657,6072;0,114255
658,5715;0,114186
659,5357;0,114113
660,4999;0,114006
661,4642;0,113722
662,4284;0,113024
663,3926;0,111675
664,3569;0,109645
665,3211;0,107389
666,2853;0,105978
667,2496;0,106524
668,2138;0,1087
669,1780;0,110656
670,1423;0,111463
671,1065;0,111463
672,0707;0,110904
673,0350;0,109827
673,9992;0,1084
674,9634;0,106921
675,9277;0,105616
676,8919;0,104525
677,8561;0,103553
678,8204;0,102601
679,7846;0,101653
680,7488;0,100739
681,7131;0,0998883
682,6773;0,0990902
683,6415;0,0983137
684,6058;0,0975402
685,5700;0,0967794
686,5342;0,0960558
687,4985;0,0953894
688,4627;0,0947999
689,4269;0,0942759
690,3912;0,0938073
691,3554;0,0933823
692,3196;0,0929761
693,2839;0,092549
694,2481;0,0920622
695,2123;0,0915013
696,1766;0,0908897
697,1408;0,0902785
698,1050;0,0897181
699,0693;0,0892308
700,0335;0,088802
700,9977;0,0883938
701,9620;0,0879725
702,9262;0,0875273
703,8904;0,0870453
704,8547;0,0865588
705,8189;0,0860869
706,7831;0,085627
707,7474;0,085159
708,7116;0,0846624
709,6758;0,0841293
710,6401;0,0835656
711,6043;0,0829816
712,5685;0,0823888
713,5328;0,0818089
714,4970;0,0812848
715,4612;0,0792919
716,4255;0,0793706
717,3897;0,079699
718,3539;0,0800577
719,3182;0,0801233
720,2824;0,0796294
721,2466;0,0785327
722,2109;0,0770504
723,1751;0,0755326
724,1393;0,0742719
725,1036;0,0733819
726,0678;0,0727958
727,0320;0,0723529
727,9963;0,0719065
728,9605;0,0713905
729,9247;0,0708173
730,8890;0,0702303
731,8532;0,0696592
732,8174;0,06911
733,7817;0,068582
734,7459;0,0680882
735,7101;0,0676562
736,6744;0,0673104
737,6386;0,0670525
738,6028;0,0668547
739,5671;0,0666695
740,5313;0,0664496
741,4955;0,0661644
742,4598;0,0658082
743,4240;0,0653963
744,3882;0,0649556
745,3525;0,0645119
746,3167;0,0640808
747,2809;0,0636646
748,2452;0,0632562
749,2094;0,0628488
750,1736;0,0624426
751,1379;0,0620472
752,1021;0,0616743
753,0663;0,061328
754,0306;0,0609991
754,9948;0,0606682
755,9590;0,0603164
756,9233;0,059938
757,8875;0,059545
758,8517;0,0591615
759,8160;0,0588107
760,7802;0,0585025
761,7444;0,0582297
762,7087;0,0579731
763,6729;0,0577131
764,6371;0,0574396
765,6014;0,0571557
766,5656;0,0568745
767,5298;0,0566115
768,4941;0,0563762
769,4583;0,0561668
770,4225;0,0559698
771,3868;0,0557646
772,3510;0,0555334
773,3152;0,0552697
774,2795;0,0549821
775,2437;0,0546897
776,2079;0,0544111
777,1722;0,0541545
778,1364;0,0539145
779,1006;0,0536793
780,0649;0,0534394
781,0291;0,053194
781,9933;0,0529481
782,9576;0,0527057
783,9218;0,0524652
784,8860;0,0522222
785,8503;0,0519767
786,8145;0,0517377
787,7787;0,0515204
788,7430;0,0513368
789,7072;0,0511874
790,6714;0,0510609
791,6357;0,0509412
792,5999;0,0508159
793,5641;0,0506798
794,5284;0,0505309
795,4926;0,0503654
796,4568;0,050178
797,4211;0,0499688
798,3853;0,0497514
799,3495;0,049553
800,3138;0,0494038
801,2780;0,0493197
802,2422;0,0492906
803,2065;0,0492817
804,1707;0,0492491
805,1349;0,0491595
806,0992;0,0490043
807,0634;0,0487994
808,0276;0,0485734
808,9919;0,048352
809,9561;0,0481491
810,9203;0,0479656
811,8846;0,0477963
812,8488;0,0476372
813,8130;0,0474895
814,7773;0,0473586
815,7415;0,0472506
816,7057;0,047169
817,6700;0,0471124
818,6342;0,0470743
819,5984;0,0470425
820,5627;0,0470024
821,5269;0,0469405
822,4911;0,0468509
823,4554;0,0467396
824,4196;0,0466225
825,3839;0,0465178
826,3481;0,0464373
827,3123;0,0463798
828,2766;0,046335
829,2408;0,0462916
830,2050;0,046246
831,1693;0,0462029
832,1335;0,0461678
833,0977;0,0461369
834,0620;0,0460923
835,0262;0,0460084
835,9904;0,0458649
836,9547;0,0456589
837,9189;0,0454079
838,8831;0,0451413
839,8474;0,0448878
840,8116;0,0446646
841,7758;0,0444753
842,7401;0,0443154
843,7043;0,0441799
844,6685;0,044069
845,6328;0,0439876
846,5970;0,0439408
847,5612;0,0439278
848,5255;0,0439368
849,4897;0,0439462
850,4539;0,0439307
851,4182;0,0438723
852,3824;0,043771
853,3466;0,0436482
854,3109;0,043539
855,2751;0,0434761
856,2393;0,0434733
857,2036;0,0435187
858,1678;0,0435825
859,1320;0,043634
860,0963;0,0436585
861,0605;0,043663
862,0247;0,0436696
862,9890;0,0437017
863,9532;0,0437731
864,9174;0,0438839
865,8817;0,0440244
866,8459;0,0441815
867,8101;0,0443425
868,7744;0,0444961
869,7386;0,0446322
870,7028;0,0447423
871,6671;0,0448212
872,6313;0,0448687
873,5955;0,0448904
874,5598;0,0448961
875,5240;0,0448985
876,4882;0,0449089
877,4525;0,0449351
878,4167;0,0449784
879,3809;0,0450356
880,3452;0,045103
881,3094;0,0451829
882,2736;0,0452874
883,2379;0,0454365
884,2021;0,0456518
885,1663;0,0459485
886,1306;0,0463316
887,0948;0,0467975
888,0590;0,0473382
889,0233;0,0479445
889,9875;0,0486045
890,9517;0,0493006
891,9160;0,0500068
892,8802;0,0506911
893,8444;0,0513197
894,8087;0,0518624
895,7729;0,0522939
896,7371;0,0525938
897,7014;0,0527464
898,6656;0,052744
899,6298;0,0525921
900,5941;0,0523119
901,5583;0,0519381
902,5225;0,0515096
903,4868;0,0510601
904,4510;0,0506111
905,4152;0,0501739
906,3795;0,0497568
907,3437;0,0493725
908,3079;0,0490416
909,2722;0,0487873
910,2364;0,0486261
911,2007;0,0485591
912,1649;0,0485701
913,1292;0,0486314
914,0934;0,0487159
915,0576;0,0488073
916,0219;0,0489055
916,9861;0,0490228
917,9503;0,0491743
918,9146;0,049367
919,8788;0,0495941
920,8430;0,0498357
921,8073;0,0500666
922,7715;0,050268
923,7357;0,0504348
924,7000;0,0505777
925,6642;0,0507163
926,6284;0,0508683
927,5927;0,0510392
928,5569;0,0512185
929,5211;0,0513849
930,4854;0,0515163
931,4496;0,0516012
932,4138;0,0516449
933,3781;0,0516672
934,3423;0,0516956
935,3065;0,0517554
936,2708;0,0518626
937,2350;0,0520215
938,1992;0,0522268
939,1635;0,0524693
940,1277;0,0527427
941,0919;0,0530471
942,0562;0,0533899
943,0204;0,0537803
943,9846;0,0542233
944,9489;0,054715
945,9131;0,0552452
946,8773;0,0558041
947,8416;0,0563914
948,8058;0,0570198
949,7700;0,0577097
950,7343;0,0584795
951,6985;0,0593362
952,6627;0,0602738
953,6270;0,0612794
954,5912;0,0623431
955,5554;0,0634626
956,5197;0,0646413
957,4839;0,0658807
958,4481;0,0671744
959,4124;0,0685077
960,3766;0,0698643
961,3408;0,0712327
962,3051;0,0726098
963,2693;0,0739979
964,2335;0,0753996
965,1978;0,0768153
966,1620;0,0782452
967,1262;0,0796947
968,0905;0,0811774
969,0547;0,0827138
970,0189;0,084327
970,9832;0,0860385
971,9474;0,0878681
972,9116;0,0898361
973,8759;0,0919655
974,8401;0,0942789
975,8043;0,0967925
976,7686;0,0995073
977,7328;0,102404
978,6970;0,105442
979,6613;0,108564
980,6255;0,111699
981,5897;0,114764
982,5540;0,117678
983,5182;0,120363
984,4824;0,122765
985,4467;0,124857
986,4109;0,126647
987,3751;0,12817
988,3394;0,129471
989,3036;0,130591
990,2678;0,131562
991,2321;0,132405
992,1963;0,133142
993,1605;0,133798
994,1248;0,134401
995,0890;0,134977
996,0532;0,135544
997,0175;0,136109
997,9817;0,13667
998,9459;0,137224
999,9102;0,137771
1000,8744;0,138316
1001,8386;0,138872
1002,8029;0,139456
1003,7671;0,140097
1004,7313;0,140832
1005,6956;0,141705
1006,6598;0,14276
1007,6240;0,144028
1008,5883;0,145523
1009,5525;0,147232
1010,5167;0,149123
1011,4810;0,151151
1012,4452;0,153266
1013,4094;0,155413
1014,3737;0,157537
1015,3379;0,159586
1016,3021;0,161517
1017,2664;0,163297
1018,2306;0,164918
1019,1948;0,166389
1020,1591;0,167735
1021,1233;0,168993
1022,0875;0,170202
1023,0518;0,171397
1024,0160;0,172603
1024,9802;0,173829
1025,9445;0,175064
1026,9087;0,176277
1027,8729;0,177425
1028,8372;0,178453
1029,8014;0,179303
1030,7656;0,179914
1031,7299;0,180219
1032,6941;0,180158
1033,6583;0,179689
1034,6226;0,178807
1035,5868;0,177559
1036,5510;0,176045
1037,5153;0,174405
1038,4795;0,172792
1039,4437;0,171341
1040,4080;0,170148
1041,3722;0,169251
1042,3364;0,168638
1043,3007;0,168254
1044,2649;0,168024
1045,2291;0,167869
1046,1934;0,167717
1047,1576;0,167511
1048,1218;0,1672
1049,0861;0,166739
1050,0503;0,166092
1051,0145;0,165234
1051,9788;0,16416
1052,9430;0,16289
1053,9072;0,161457
1054,8715;0,15989
1055,8357;0,158196
1056,7999;0,15635
1057,7642;0,154304
1058,7284;0,152007
1059,6926;0,149434
1060,6569;0,146601
1061,6211;0,143575
1062,5853;0,140455
1063,5496;0,137352
1064,5138;0,134363
1065,4780;0,131558
1066,4423;0,128976
1067,4065;0,126627
1068,3707;0,124502
1069,3350;0,12258
1070,2992;0,120828
1071,2634;0,119206
1072,2277;0,117666
1073,1919;0,116158
1074,1561;0,11464
1075,1204;0,113082
1076,0846;0,111472
1077,0488;0,109815
1078,0131;0,108132
1078,9773;0,106457
1079,9415;0,104827
1080,9058;0,103286
1081,8700;0,10187
1082,8342;0,100607
1083,7985;0,0995059
1084,7627;0,0985587
1085,7269;0,0977431
1086,6912;0,0970314
1087,6554;0,0964004
1088,6196;0,0958387
1089,5839;0,0953474
1090,5481;0,0949365
1091,5123;0,0946188
1092,4766;0,0944044
1093,4408;0,0942976
1094,4050;0,0942961
1095,3693;0,0943921
1096,3335;0,094574
1097,2977;0,0948275
1098,2620;0,0951365
1099,2262;0,0954837
1100,1904;0,0958491
1101,1547;0,0962083
1102,1189;0,0965319
1103,0831;0,0967868
1104,0474;0,096942
1105,0116;0,0969764
1105,9758;0,0968848
1106,9401;0,0966777
1107,9043;0,0963729
1108,8685;0,0959806
1109,8328;0,0954915
1110,7970;0,0948754
1111,7612;0,0940945
1112,7255;0,0931261
1113,6897;0,0919841
1114,6539;0,0907251
1115,6182;0,0894359
1116,5824;0,088206
1117,5466;0,0870993
1118,5109;0,0861358
1119,4751;0,08529
1120,4393;0,084502
1121,4036;0,0836968
1122,3678;0,0828029
1123,3320;0,0817666
1124,2963;0,0805603
1125,2605;0,0791839
1126,2247;0,0776613
1127,1890;0,0760305
1128,1532;0,0743337
1129,1174;0,0726083
1130,0817;0,0708835
1131,0459;0,0691814
1132,0101;0,0675218
1132,9744;0,0659261
1133,9386;0,0644194
1134,9028;0,0630293
1135,8671;0,0617824
1136,8313;0,0607013
1137,7955;0,0598005
1138,7598;0,0590854
1139,7240;0,0585511
1140,6882;0,0581841
1141,6525;0,0579637
1142,6167;0,0578661
1143,5809;0,0578679
1144,5452;0,0579502
1145,5094;0,0581008
1146,4736;0,0583149
1147,4379;0,0585928
1148,4021;0,0589364
1149,3663;0,0593447
1150,3306;0,0598116
1151,2948;0,0603248
1152,2590;0,0608668
1153,2233;0,0614161
1154,1875;0,0619464
1155,1517;0,062425
1156,1160;0,0628122
1157,0802;0,0630603
1158,0444;0,0631161
1159,0087;0,0629251
1159,9729;0,0624378
1160,9371;0,0616166
1161,9014;0,0604437
1162,8656;0,0589266
1163,8298;0,0571006
1164,7941;0,0550268
1165,7583;0,0527841
1166,7225;0,0504611
1167,6868;0,0481453
1168,6510;0,0459148
1169,6152;0,043831
1170,5795;0,0419333
1171,5437;0,0402378
1172,5079;0,0387406
1173,4722;0,0374244
1174,4364;0,0362673
1175,4006;0,0352503
1176,3649;0,0343601
1177,3291;0,0335878
1178,2933;0,0329262
1179,2576;0,0323672
1180,2218;0,0319022
1181,1860;0,031523
1182,1503;0,0312229
1183,1145;0,0309966
1184,0787;0,0308387
1185,0430;0,0307426
1186,0072;0,0307008
1186,9714;0,0307067
1187,9357;0,0307578
1188,8999;0,0308572
1189,8641;0,0310137
1190,8284;0,0312391
1191,7926;0,031544
1192,7568;0,0319329
1193,7211;0,0324016
1194,6853;0,0329374
1195,6495;0,0335215
1196,6138;0,0341333
1197,5780;0,0347542
1198,5422;0,0353708
1199,5065;0,0357385
1200,4707;0,0363593
1201,4349;0,0369722
1202,3992;0,0375806
1203,3634;0,038186
1204,3276;0,0387872
1205,2919;0,0393812
1206,2561;0,0399665
1207,2203;0,0405469
1208,1846;0,0411324
1209,1488;0,0417365
1210,1130;0,042371
1211,0773;0,0430428
1212,0415;0,043753
1213,0057;0,0444993
1213,9700;0,0452783
1214,9342;0,0460865
1215,8984;0,0469186
1216,8627;0,0477644
1217,8269;0,0486099
1218,7911;0,0494421
1219,7554;0,050251
1220,7196;0,0510293
1221,6838;0,0517703
1222,6481;0,0524668
1223,6123;0,0531122
1224,5765;0,0537052
1225,5408;0,0542528
1226,5050;0,0547691
1227,4692;0,0552689
1228,4335;0,0557597
1229,3977;0,0562377
1230,3619;0,0566893
1231,3262;0,0570977
1232,2904;0,0574498
1233,2546;0,0577407
1234,2189;0,0579738
1235,1831;0,0581586
1236,1473;0,0583068
1237,1116;0,0584297
1238,0758;0,0585354
1239,0400;0,0586273
1240,0043;0,0587029
1240,9685;0,0587548
1241,9327;0,0587731
1242,8970;0,0587476
1243,8612;0,0586703
1244,8254;0,0585354
1245,7897;0,0583412
1246,7539;0,0580904
1247,7181;0,0577917
1248,6824;0,0574578
1249,6466;0,0571029
1250,6108;0,0567382
1251,5751;0,05637
1252,5393;0,0560008
1253,5035;0,0556327
1254,4678;0,0552687
1255,4320;0,0549104
1256,3962;0,0545536
1257,3605;0,0541853
1258,3247;0,0537863
1259,2889;0,0533392
1260,2532;0,0528358
1261,2174;0,0522802
1262,1816;0,0516857
1263,1459;0,0510682
1264,1101;0,0504402
1265,0743;0,0498098
1266,0386;0,0491793
1267,0028;0,0485454
1267,9670;0,0478979
1268,9313;0,0472219
1269,8955;0,0465036
1270,8597;0,0457381
1271,8240;0,044934
1272,7882;0,0441127
1273,7524;0,0433008
1274,7167;0,0425222
1275,6809;0,0417927
1276,6451;0,041118
1277,6094;0,040494
1278,5736;0,0399081
1279,5378;0,0393434
1280,5021;0,0387857
1281,4663;0,0382306
1282,4305;0,0376874
1283,3948;0,0371747
1284,3590;0,0367101
1285,3232;0,0363004
1286,2875;0,0359377
1287,2517;0,0356047
1288,2159;0,035287
1289,1802;0,0349834
1290,1444;0,0347079
1291,1086;0,0344825
1292,0729;0,0343261
1293,0371;0,034246
1294,0013;0,0342365
1294,9656;0,0342845
1295,9298;0,0343766
1296,8940;0,0345063
1297,8583;0,0346757
1298,8225;0,0348929
1299,7867;0,0351669
1300,7510;0,035503
1301,7152;0,0359027
1302,6794;0,0363597
1303,6437;0,0368613
1304,6079;0,037394
1305,5721;0,0379457
1306,5364;0,0385114
1307,5006;0,0390951
1308,4648;0,0397072
1309,4291;0,0403548
1310,3933;0,0410324
1311,3575;0,0417162
1312,3218;0,0423702
1313,2860;0,0429594
1314,2502;0,0434606
1315,2145;0,0438621
1316,1787;0,0441521
1317,1429;0,0443081
1318,1072;0,0443029
1319,0714;0,0441244
1320,0356;0,0437975
1320,9999;0,0433846
1321,9641;0,0429624
1322,9283;0,0425932
1323,8926;0,0423083
1324,8568;0,0421087
1325,8210;0,0419754
1326,7853;0,0418827
1327,7495;0,0418067
1328,7137;0,0417296
1329,6780;0,0416395
1330,6422;0,041534
1331,6064;0,0414257
1332,5707;0,0413431
1333,5349;0,0413272
1334,4991;0,0414109
1335,4634;0,0415932
1336,4276;0,041813
1337,3918;0,0419369
1338,3561;0,041795
1339,3203;0,0412797
1340,2845;0,0404417
1341,2488;0,0394708
1342,2130;0,0385731
1343,1772;0,0378716
1344,1415;0,0373935
1345,1057;0,037107
1346,0699;0,0369592
1347,0342;0,0369013
1347,9984;0,0369052
1348,9626;0,0369668
1349,9269;0,0370971
1350,8911;0,0373056
1351,8553;0,0375883
1352,8196;0,0379251
