TITLE;
DATA TYPE;INFRARED SPECTRUM
ORIGIN;JASCO
OWNER;
DATE;25/02/28
TIME;16:39:14
SPECTROMETER/DATA SYSTEM;
LOCALE;9226
RESOLUTION;
DELTAX;0,964233
XUNITS;1/CM
YUNITS;ABSORBANCE
FIRSTX;  399,1927
LASTX; 4000,6047
NPOINTS;    3736
FIRSTY;     0,21737
MAXY;     0,24208
MINY;    -0,01360
XYDATA
399,1927;0,217365
400,1569;0,213036
401,1211;0,209545
402,0854;0,206945
403,0496;0,20499
404,0138;0,203399
404,9781;0,201952
405,9423;0,200535
406,9065;0,199157
407,8708;0,197909
408,8350;0,196895
409,7992;0,196193
410,7635;0,19586
411,7277;0,195967
412,6919;0,196618
413,6562;0,197931
414,6204;0,199984
415,5846;0,202741
416,5489;0,205897
417,5131;0,208678
418,4773;0,209971
419,4416;0,209256
420,4058;0,207348
421,3700;0,205558
422,3343;0,204543
423,2985;0,204218
424,2627;0,204148
425,2270;0,203896
426,1912;0,203236
427,1554;0,202228
428,1197;0,201115
429,0839;0,200155
430,0481;0,199497
431,0124;0,199151
431,9766;0,199021
432,9408;0,198961
433,9051;0,198821
434,8693;0,198501
435,8335;0,197989
436,7978;0,197376
437,7620;0,196821
438,7262;0,196476
439,6905;0,196406
440,6547;0,196545
441,6189;0,196693
442,5832;0,196577
443,5474;0,195982
444,5116;0,194894
445,4759;0,193517
446,4401;0,192171
447,4043;0,19112
448,3686;0,190469
449,3328;0,190136
450,2970;0,189912
451,2613;0,18958
452,2255;0,189037
453,1897;0,188345
454,1540;0,187676
455,1182;0,187201
456,0824;0,186977
457,0467;0,186887
458,0109;0,186662
458,9751;0,186046
459,9394;0,184968
460,9036;0,183578
461,8678;0,182152
462,8321;0,180993
463,7963;0,180367
464,7605;0,180422
465,7248;0,181103
466,6890;0,182133
467,6532;0,183113
468,6175;0,183684
469,5817;0,18365
470,5459;0,183033
471,5102;0,182051
472,4744;0,181031
473,4386;0,18025
474,4029;0,179805
475,3671;0,179629
476,3313;0,179602
477,2956;0,179647
478,2598;0,179768
479,2240;0,180012
480,1883;0,18041
481,1525;0,180926
482,1167;0,181442
483,0810;0,181808
484,0452;0,181923
485,0094;0,181816
485,9737;0,181644
486,9379;0,181615
487,9021;0,181875
488,8664;0,182453
489,8306;0,183246
490,7948;0,184063
491,7591;0,184702
492,7233;0,185036
493,6875;0,185067
494,6518;0,184911
495,6160;0,184734
496,5802;0,184676
497,5445;0,184816
498,5087;0,185158
499,4729;0,185644
500,4372;0,186178
501,4014;0,186648
502,3656;0,186972
503,3299;0,187131
504,2941;0,187174
505,2583;0,18719
506,2226;0,187265
507,1868;0,187445
508,1510;0,18772
509,1153;0,188041
510,0795;0,188358
511,0437;0,188668
512,0080;0,189019
512,9722;0,189489
513,9365;0,190132
514,9007;0,190944
515,8649;0,191837
516,8292;0,192668
517,7934;0,193294
518,7576;0,193643
519,7219;0,193748
520,6861;0,193709
521,6503;0,19363
522,6146;0,193578
523,5788;0,193571
524,5430;0,193587
525,5073;0,19358
526,4715;0,193497
527,4357;0,19331
528,4000;0,193028
529,3642;0,192695
530,3284;0,192369
531,2927;0,192097
532,2569;0,191898
533,2211;0,191751
534,1854;0,191607
535,1496;0,191415
536,1138;0,191149
537,0781;0,190825
538,0423;0,19049
539,0065;0,190203
539,9708;0,190017
540,9350;0,189959
541,8992;0,190035
542,8635;0,190227
543,8277;0,190492
544,7919;0,190764
545,7562;0,190964
546,7204;0,191032
547,6846;0,190958
548,6489;0,190804
549,6131;0,190687
550,5773;0,190725
551,5416;0,190979
552,5058;0,191417
553,4700;0,191928
554,4343;0,192366
555,3985;0,192608
556,3627;0,192593
557,3270;0,192324
558,2912;0,19184
559,2554;0,191193
560,2197;0,190435
561,1839;0,189622
562,1481;0,18882
563,1124;0,188092
564,0766;0,187479
565,0408;0,186983
566,0051;0,186568
566,9693;0,186189
567,9335;0,185818
568,8978;0,185468
569,8620;0,185176
570,8262;0,184984
571,7905;0,184919
572,7547;0,184981
573,7189;0,185157
574,6832;0,185415
575,6474;0,185708
576,6116;0,185972
577,5759;0,186145
578,5401;0,186183
579,5043;0,18608
580,4686;0,18586
581,4328;0,18556
582,3970;0,185207
583,3613;0,184815
584,3255;0,184404
585,2897;0,184026
586,2540;0,183762
587,2182;0,183687
588,1824;0,183819
589,1467;0,184083
590,1109;0,184331
591,0751;0,184407
592,0394;0,184234
593,0036;0,183855
593,9678;0,183396
594,9321;0,182977
595,8963;0,182638
596,8605;0,18233
597,8248;0,181965
598,7890;0,181481
599,7532;0,18089
600,7175;0,180266
601,6817;0,179693
602,6459;0,179211
603,6102;0,178807
604,5744;0,178433
605,5386;0,17804
606,5029;0,177591
607,4671;0,177062
608,4313;0,176425
609,3956;0,17567
610,3598;0,174837
611,3240;0,174047
612,2883;0,173472
613,2525;0,173254
614,2167;0,1734
615,1810;0,173715
616,1452;0,173836
617,1094;0,173389
618,0737;0,172198
619,0379;0,170397
620,0021;0,168354
620,9664;0,166466
621,9306;0,16498
622,8948;0,163928
623,8591;0,163179
624,8233;0,162458
625,7875;0,161804
626,7518;0,161185
627,7160;0,160645
628,6802;0,160224
629,6445;0,159925
630,6087;0,159697
631,5729;0,159467
632,5372;0,159172
633,5014;0,158791
634,4656;0,158346
635,4299;0,157895
636,3941;0,157497
637,3583;0,157188
638,3226;0,156965
639,2868;0,156794
640,2510;0,156632
641,2153;0,156456
642,1795;0,156275
643,1437;0,156123
644,1080;0,156027
645,0722;0,155981
646,0364;0,155933
647,0007;0,155818
647,9649;0,155586
648,9291;0,155242
649,8934;0,154838
650,8576;0,154451
651,8218;0,154144
652,7861;0,153956
653,7503;0,153895
654,7145;0,153948
655,6788;0,154074
656,6430;0,154216
657,6072;0,154327
658,5715;0,154388
659,5357;0,154393
660,4999;0,154295
661,4642;0,153946
662,4284;0,153101
663,3926;0,151503
664,3569;0,149091
665,3211;0,146322
666,2853;0,144328
667,2496;0,144329
668,2138;0,146081
669,1780;0,14777
670,1423;0,148474
671,1065;0,148449
672,0707;0,147797
673,0350;0,146469
673,9992;0,144638
674,9634;0,142677
675,9277;0,140906
676,8919;0,139415
677,8561;0,138094
678,8204;0,136804
679,7846;0,135494
680,7488;0,134209
681,7131;0,133028
682,6773;0,131992
683,6415;0,131097
684,6058;0,130312
685,5700;0,129608
686,5342;0,128954
687,4985;0,128323
688,4627;0,127707
689,4269;0,12709
690,3912;0,126479
691,3554;0,125895
692,3196;0,125346
693,2839;0,124822
694,2481;0,124295
695,2123;0,123744
696,1766;0,12317
697,1408;0,122592
698,1050;0,122029
699,0693;0,121484
700,0335;0,120948
700,9977;0,120406
701,9620;0,119858
702,9262;0,119317
703,8904;0,118775
704,8547;0,118253
705,8189;0,117747
706,7831;0,117231
707,7474;0,11667
708,7116;0,11604
709,6758;0,115342
710,6401;0,114592
711,6043;0,113819
712,5685;0,113052
713,5328;0,112332
714,4970;0,111713
715,4612;0,109467
716,4255;0,10956
717,3897;0,109908
718,3539;0,110245
719,3182;0,110206
720,2824;0,109508
721,2466;0,108126
722,2109;0,106313
723,1751;0,104459
724,1393;0,102883
725,1036;0,101712
726,0678;0,100889
727,0320;0,100254
727,9963;0,09966
728,9605;0,0990272
729,9247;0,0983498
730,8890;0,0976538
731,8532;0,0969612
732,8174;0,09628
733,7817;0,0956162
734,7459;0,0949859
735,7101;0,0944132
736,6744;0,0939163
737,6386;0,0934939
738,6028;0,0931219
739,5671;0,0927614
740,5313;0,0923736
741,4955;0,0919329
742,4598;0,0914352
743,4240;0,0908959
744,3882;0,0903407
745,3525;0,0897922
746,3167;0,0892609
747,2809;0,0887441
748,2452;0,0882337
749,2094;0,0877255
750,1736;0,0872233
751,1379;0,0867341
752,1021;0,0862582
753,0663;0,0857851
754,0306;0,0852971
754,9948;0,0847809
755,9590;0,0842374
756,9233;0,0836836
757,8875;0,0831444
758,8517;0,0826408
759,8160;0,0821825
760,7802;0,0817674
761,7444;0,0813883
762,7087;0,0810385
763,6729;0,0807144
764,6371;0,0804118
765,6014;0,0801226
766,5656;0,0798345
767,5298;0,0795357
768,4941;0,0792216
769,4583;0,0788975
770,4225;0,0785762
771,3868;0,0782697
772,3510;0,0779838
773,3152;0,0777161
774,2795;0,07746
775,2437;0,0772105
776,2079;0,0769655
777,1722;0,0767225
778,1364;0,0764739
779,1006;0,076205
780,0649;0,0758989
781,0291;0,0755442
781,9933;0,0751417
782,9576;0,0747039
783,9218;0,0742492
784,8860;0,0737952
785,8503;0,0733554
786,8145;0,0729409
787,7787;0,0725627
788,7430;0,0722312
789,7072;0,0719507
790,6714;0,0717153
791,6357;0,0715078
792,5999;0,0713071
793,5641;0,071097
794,5284;0,0708724
795,4926;0,070639
796,4568;0,0704078
797,4211;0,0701885
798,3853;0,0699882
799,3495;0,0698125
800,3138;0,0696652
801,2780;0,0695463
802,2422;0,0694466
803,2065;0,0693469
804,1707;0,0692236
805,1349;0,0690588
806,0992;0,0688497
807,0634;0,0686089
808,0276;0,0683574
808,9919;0,0681138
809,9561;0,0678873
810,9203;0,0676787
811,8846;0,0674855
812,8488;0,0673067
813,8130;0,0671437
814,7773;0,0669972
815,7415;0,0668656
816,7057;0,066745
817,6700;0,0666321
818,6342;0,0665247
819,5984;0,0664199
820,5627;0,0663127
821,5269;0,0661964
822,4911;0,0660676
823,4554;0,0659309
824,4196;0,0658
825,3839;0,0656909
826,3481;0,0656133
827,3123;0,0655642
828,2766;0,0655291
829,2408;0,0654905
830,2050;0,0654352
831,1693;0,0653578
832,1335;0,0652568
833,0977;0,0651291
834,0620;0,0649681
835,0262;0,064768
835,9904;0,0645303
836,9547;0,0642667
837,9189;0,0639962
838,8831;0,0637372
839,8474;0,0634994
840,8116;0,0632819
841,7758;0,0630774
842,7401;0,0628805
843,7043;0,0626939
844,6685;0,062529
845,6328;0,0624006
846,5970;0,062319
847,5612;0,0622832
848,5255;0,0622798
849,4897;0,0622877
850,4539;0,0622873
851,4182;0,0622688
852,3824;0,062237
853,3466;0,0622073
854,3109;0,0621964
855,2751;0,0622111
856,2393;0,0622431
857,2036;0,0622722
858,1678;0,0622782
859,1320;0,0622527
860,0963;0,0622047
861,0605;0,0621555
862,0247;0,062127
862,9890;0,0621306
863,9532;0,0621655
864,9174;0,062224
865,8817;0,0623015
866,8459;0,0623996
867,8101;0,0625236
868,7744;0,0626744
869,7386;0,0628434
870,7028;0,0630142
871,6671;0,063169
872,6313;0,0632952
873,5955;0,0633887
874,5598;0,0634511
875,5240;0,063488
876,4882;0,0635074
877,4525;0,0635207
878,4167;0,0635429
879,3809;0,0635908
880,3452;0,0636806
881,3094;0,0638266
882,2736;0,0640434
883,2379;0,0643478
884,2021;0,064759
885,1663;0,0652938
886,1306;0,0659599
887,0948;0,0667525
888,0590;0,067654
889,0233;0,0686393
889,9875;0,0696792
890,9517;0,0707422
891,9160;0,071793
892,8802;0,072791
893,8444;0,0736919
894,8087;0,074451
895,7729;0,0750278
896,7371;0,0753904
897,7014;0,075519
898,6656;0,0754082
899,6298;0,07507
900,5941;0,0745346
901,5583;0,0738464
902,5225;0,0730585
903,4868;0,0722239
904,4510;0,0713889
905,4152;0,0705905
906,3795;0,0698568
907,3437;0,0692098
908,3079;0,0686662
909,2722;0,0682365
910,2364;0,0679226
911,2007;0,0677163
912,1649;0,0676
913,1292;0,0675523
914,0934;0,0675555
915,0576;0,0676016
916,0219;0,067695
916,9861;0,0678472
917,9503;0,0680671
918,9146;0,0683511
919,8788;0,0686781
920,8430;0,069014
921,8073;0,0693235
922,7715;0,069583
923,7357;0,0697896
924,7000;0,0699591
925,6642;0,0701161
926,6284;0,0702804
927,5927;0,0704568
928,5569;0,0706339
929,5211;0,0707918
930,4854;0,0709147
931,4496;0,071001
932,4138;0,0710665
933,3781;0,0711384
934,3423;0,0712453
935,3065;0,0714074
936,2708;0,0716322
937,2350;0,071917
938,1992;0,0722559
939,1635;0,0726461
940,1277;0,0730908
941,0919;0,0735981
942,0562;0,0741765
943,0204;0,0748316
943,9846;0,0755646
944,9489;0,0763734
945,9131;0,0772557
946,8773;0,0782105
947,8416;0,0792398
948,8058;0,080347
949,7700;0,0815361
950,7343;0,0828103
951,6985;0,0841711
952,6627;0,0856175
953,6270;0,0871466
954,5912;0,0887542
955,5554;0,0904363
956,5197;0,0921904
957,4839;0,0940144
958,4481;0,0959033
959,4124;0,0978455
960,3766;0,0998215
961,3408;0,101806
962,3051;0,103779
963,2693;0,105727
964,2335;0,107655
965,1978;0,109583
966,1620;0,111537
967,1262;0,113542
968,0905;0,115618
969,0547;0,117779
970,0189;0,120034
970,9832;0,122394
971,9474;0,124875
972,9116;0,127506
973,8759;0,130321
974,8401;0,133355
975,8043;0,136632
976,7686;0,140152
977,7328;0,143887
978,6970;0,147783
979,6613;0,151761
980,6255;0,155729
981,5897;0,159583
982,5540;0,16322
983,5182;0,166549
984,4824;0,169505
985,4467;0,172067
986,4109;0,174262
987,3751;0,17615
988,3394;0,177805
989,3036;0,179286
990,2678;0,180624
991,2321;0,181825
992,1963;0,182889
993,1605;0,183818
994,1248;0,184634
995,0890;0,185371
996,0532;0,186071
997,0175;0,186766
997,9817;0,187476
998,9459;0,188209
999,9102;0,188963
1000,8744;0,189735
1001,8386;0,190536
1002,8029;0,191391
1003,7671;0,192346
1004,7313;0,193457
1005,6956;0,194783
1006,6598;0,19637
1007,6240;0,198248
1008,5883;0,20042
1009,5525;0,202866
1010,5167;0,205544
1011,4810;0,208392
1012,4452;0,211334
1013,4094;0,214289
1014,3737;0,217177
1015,3379;0,219931
1016,3021;0,222502
1017,2664;0,224863
1018,2306;0,227007
1019,1948;0,22894
1020,1591;0,230674
1021,1233;0,232229
1022,0875;0,233629
1023,0518;0,234905
1024,0160;0,236091
1024,9802;0,23722
1025,9445;0,238308
1026,9087;0,239349
1027,8729;0,240309
1028,8372;0,241134
1029,8014;0,241752
1030,7656;0,242084
1031,7299;0,242053
1032,6941;0,241593
1033,6583;0,240669
1034,6226;0,239291
1035,5868;0,237535
1036,5510;0,23553
1037,5153;0,233442
1038,4795;0,231434
1039,4437;0,229631
1040,4080;0,228099
1041,3722;0,226844
1042,3364;0,225825
1043,3007;0,224968
1044,2649;0,224189
1045,2291;0,223404
1046,1934;0,222541
1047,1576;0,221546
1048,1218;0,220388
1049,0861;0,219045
1050,0503;0,217505
1051,0145;0,215762
1051,9788;0,213814
1052,9430;0,211673
1053,9072;0,209367
1054,8715;0,206933
1055,8357;0,204394
1056,7999;0,201744
1057,7642;0,198946
1058,7284;0,195945
1059,6926;0,192703
1060,6569;0,189226
1061,6211;0,185578
1062,5853;0,18187
1063,5496;0,178232
1064,5138;0,174779
1065,4780;0,171587
1066,4423;0,168686
1067,4065;0,166067
1068,3707;0,163689
1069,3350;0,161502
1070,2992;0,159456
1071,2634;0,157506
1072,2277;0,155611
1073,1919;0,153737
1074,1561;0,15185
1075,1204;0,149924
1076,0846;0,147947
1077,0488;0,145928
1078,0131;0,143902
1078,9773;0,141922
1079,9415;0,140042
1080,9058;0,138309
1081,8700;0,136749
1082,8342;0,135367
1083,7985;0,134153
1084,7627;0,13309
1085,7269;0,132158
1086,6912;0,131339
1087,6554;0,130615
1088,6196;0,129976
1089,5839;0,129413
1090,5481;0,128929
1091,5123;0,128534
1092,4766;0,128246
1093,4408;0,128076
1094,4050;0,128028
1095,3693;0,128089
1096,3335;0,128236
1097,2977;0,128441
1098,2620;0,128683
1099,2262;0,128943
1100,1904;0,129209
1101,1547;0,129464
1102,1189;0,129685
1103,0831;0,129843
1104,0474;0,129915
1105,0116;0,129884
1105,9758;0,129749
1106,9401;0,129516
1107,9043;0,129191
1108,8685;0,128767
1109,8328;0,128221
1110,7970;0,12752
1111,7612;0,126634
1112,7255;0,125558
1113,6897;0,124322
1114,6539;0,122993
1115,6182;0,121655
1116,5824;0,120388
1117,5466;0,119239
1118,5109;0,11821
1119,4751;0,117262
1120,4393;0,116329
1121,4036;0,115334
1122,3678;0,114203
1123,3320;0,112879
1124,2963;0,111326
1125,2605;0,109534
1126,2247;0,107521
1127,1890;0,105326
1128,1532;0,103006
1129,1174;0,10062
1130,0817;0,0982236
1131,0459;0,0958616
1132,0101;0,0935701
1132,9744;0,0913801
1133,9386;0,0893226
1134,9028;0,0874312
1135,8671;0,0857405
1136,8313;0,0842813
1137,7955;0,0830741
1138,7598;0,0821248
1139,7240;0,0814238
1140,6882;0,0809499
1141,6525;0,0806757
1142,6167;0,0805728
1143,5809;0,0806155
1144,5452;0,0807813
1145,5094;0,0810513
1146,4736;0,0814102
1147,4379;0,081847
1148,4021;0,082355
1149,3663;0,0829301
1150,3306;0,0835674
1151,2948;0,0842569
1152,2590;0,0849793
1153,2233;0,0857038
1154,1875;0,086387
1155,1517;0,0869756
1156,1160;0,0874094
1157,0802;0,087626
1158,0444;0,0875641
1159,0087;0,0871658
1159,9729;0,0863798
1160,9371;0,0851663
1161,9014;0,0835059
1162,8656;0,0814099
1163,8298;0,0789267
1164,7941;0,0761404
1165,7583;0,0731596
1166,7225;0,0701016
1167,6868;0,0670762
1168,6510;0,0641752
1169,6152;0,0614663
1170,5795;0,0589927
1171,5437;0,0567736
1172,5079;0,0548073
1173,4722;0,053076
1174,4364;0,0515527
1175,4006;0,0502094
1176,3649;0,0490228
1177,3291;0,0479777
1178,2933;0,0470653
1179,2576;0,0462806
1180,2218;0,045619
1181,1860;0,0450745
1182,1503;0,0446387
1183,1145;0,0443013
1184,0787;0,0440511
1185,0430;0,0438784
1186,0072;0,0437772
1186,9714;0,0437476
1187,9357;0,043796
1188,8999;0,043933
1189,8641;0,0441701
1190,8284;0,0445152
1191,7926;0,0449709
1192,7568;0,0455344
1193,7211;0,0461982
1194,6853;0,0469516
1195,6495;0,0477801
1196,6138;0,048665
1197,5780;0,049584
1198,5422;0,0505144
1199,5065;0,0512613
1200,4707;0,0521919
1201,4349;0,0531103
1202,3992;0,0540231
1203,3634;0,0549366
1204,3276;0,0558523
1205,2919;0,0567664
1206,2561;0,0576742
1207,2203;0,0585761
1208,1846;0,0594819
1209,1488;0,0604099
1210,1130;0,0613819
1211,0773;0,0624167
1212,0415;0,0635244
1213,0057;0,0647042
1213,9700;0,0659451
1214,9342;0,0672289
1215,8984;0,0685339
1216,8627;0,0698372
1217,8269;0,0711177
1218,7911;0,0723608
1219,7554;0,0735581
1220,7196;0,074706
1221,6838;0,0758027
1222,6481;0,0768465
1223,6123;0,0778355
1224,5765;0,07877
1225,5408;0,0796538
1226,5050;0,0804937
1227,4692;0,0812955
1228,4335;0,0820593
1229,3977;0,0827775
1230,3619;0,0834368
1231,3262;0,0840252
1232,2904;0,084538
1233,2546;0,0849803
1234,2189;0,0853647
1235,1831;0,0857045
1236,1473;0,0860081
1237,1116;0,0862771
1238,0758;0,0865076
1239,0400;0,0866934
1240,0043;0,0868277
1240,9685;0,0869034
1241,9327;0,0869132
1242,8970;0,0868507
1243,8612;0,0867126
1244,8254;0,0865001
1245,7897;0,0862176
1246,7539;0,0858712
1247,7181;0,0854654
1248,6824;0,0850041
1249,6466;0,0844922
1250,6108;0,0839386
1251,5751;0,0833583
1252,5393;0,0827703
1253,5035;0,0821939
1254,4678;0,0816413
1255,4320;0,0811126
1256,3962;0,0805928
1257,3605;0,0800556
1258,3247;0,0794711
1259,2889;0,078817
1260,2532;0,0780865
1261,2174;0,0772898
1262,1816;0,0764465
1263,1459;0,0755767
1264,1101;0,0746925
1265,0743;0,0737964
1266,0386;0,0728819
1267,0028;0,0719372
1267,9670;0,0709473
1268,9313;0,0698985
1269,8955;0,0687827
1270,8597;0,0676027
1271,8240;0,066374
1272,7882;0,0651224
1273,7524;0,0638777
1274,7167;0,0626669
1275,6809;0,0615091
1276,6451;0,0604133
1277,6094;0,0593769
1278,5736;0,0583878
1279,5378;0,0574288
1280,5021;0,0564872
1281,4663;0,0555625
1282,4305;0,0546698
1283,3948;0,0538337
1284,3590;0,0530765
1285,3232;0,0524076
1286,2875;0,0518198
1287,2517;0,0512961
1288,2159;0,0508212
1289,1802;0,0503927
1290,1444;0,0500232
1291,1086;0,0497334
1292,0729;0,0495419
1293,0371;0,0494573
1294,0013;0,0494769
1294,9656;0,0495902
1295,9298;0,0497846
1296,8940;0,0500504
1297,8583;0,0503826
1298,8225;0,0507805
1299,7867;0,051246
1300,7510;0,0517813
1301,7152;0,0523904
1302,6794;0,0530724
1303,6437;0,0538206
1304,6079;0,054623
1305,5721;0,0554656
1306,5364;0,0563386
1307,5006;0,0572419
1308,4648;0,0581832
1309,4291;0,0591674
1310,3933;0,0601838
1311,3575;0,0611984
1312,3218;0,0621605
1313,2860;0,0630192
1314,2502;0,0637379
1315,2145;0,0642955
1316,1787;0,0646746
1317,1429;0,0648523
1318,1072;0,0648071
1319,0714;0,0645422
1320,0356;0,0641034
1320,9999;0,0635726
1321,9641;0,063038
1322,9283;0,0625641
1323,8926;0,0621793
1324,8568;0,061883
1325,8210;0,06166
1326,7853;0,061492
1327,7495;0,061361
1328,7137;0,0612469
1329,6780;0,0611262
1330,6422;0,0609804
1331,6064;0,0608105
1332,5707;0,0606459
1333,5349;0,0605398
1334,4991;0,0605414
1335,4634;0,0606572
1336,4276;0,060816
1337,3918;0,0608574
1338,3561;0,0605811
1339,3203;0,059867
1340,2845;0,0587834
1341,2488;0,0575592
1342,2130;0,0564392
1343,1772;0,0555685
1344,1415;0,0549777
1345,1057;0,054625
1346,0699;0,0544438
1347,0342;0,0543767
1347,9984;0,0543944
1348,9626;0,0544969
1349,9269;0,0546981
1350,8911;0,0550065
1351,8553;0,0554121
1352,8196;0,0558889
1353,7838;0,0564082
1354,7480;0,0569576
1355,7123;0,0575536
1356,6765;0,0582376
1357,6407;0,0590546
1358,6050;0,0600256
