TITLE;
DATA TYPE;INFRARED SPECTRUM
ORIGIN;JASCO
OWNER;
DATE;25/02/28
TIME;16:15:27
SPECTROMETER/DATA SYSTEM;
LOCALE;9226
RESOLUTION;
DELTAX;0,964233
XUNITS;1/CM
YUNITS;ABSORBANCE
FIRSTX;  399,1927
LASTX; 4000,6047
NPOINTS;    3736
FIRSTY;     0,16985
MAXY;     0,21609
MINY;    -0,00502
XYDATA
399,1927;0,169847
400,1569;0,167287
401,1211;0,163859
402,0854;0,16046
403,0496;0,157571
404,0138;0,155374
404,9781;0,153882
405,9423;0,153018
406,9065;0,152647
407,8708;0,152605
408,8350;0,152712
409,7992;0,152807
410,7635;0,15279
411,7277;0,152691
412,6919;0,152697
413,6562;0,153098
414,6204;0,154185
415,5846;0,156166
416,5489;0,159033
417,5131;0,162315
418,4773;0,164931
419,4416;0,165822
420,4058;0,165035
421,3700;0,163574
422,3343;0,162318
423,2985;0,161543
424,2627;0,161094
425,2270;0,16066
426,1912;0,16001
427,1554;0,159137
428,1197;0,15826
429,0839;0,157701
430,0481;0,15773
431,0124;0,158434
431,9766;0,159652
432,9408;0,160994
433,9051;0,161969
434,8693;0,162181
435,8335;0,161517
436,7978;0,160226
437,7620;0,1588
438,7262;0,157731
439,6905;0,157293
440,6547;0,157457
441,6189;0,15792
442,5832;0,158244
443,5474;0,158071
444,5116;0,157332
445,4759;0,156265
446,4401;0,155237
447,4043;0,15453
448,3686;0,154212
449,3328;0,154146
450,2970;0,154091
451,2613;0,15385
452,2255;0,153395
453,1897;0,152879
454,1540;0,152531
455,1182;0,152513
456,0824;0,152794
457,0467;0,153124
458,0109;0,153151
458,9751;0,152672
459,9394;0,151786
460,9036;0,15079
461,8678;0,149959
462,8321;0,149423
463,7963;0,149167
464,7605;0,149081
465,7248;0,149033
466,6890;0,148928
467,6532;0,148729
468,6175;0,148435
469,5817;0,148051
470,5459;0,147587
471,5102;0,147079
472,4744;0,14661
473,4386;0,14628
474,4029;0,146144
475,3671;0,146182
476,3313;0,146324
477,2956;0,146511
478,2598;0,146727
479,2240;0,146996
480,1883;0,147355
481,1525;0,147803
482,1167;0,148283
483,0810;0,148694
484,0452;0,148951
485,0094;0,14903
485,9737;0,148989
486,9379;0,148924
487,9021;0,148922
488,8664;0,149034
489,8306;0,149274
490,7948;0,149624
491,7591;0,150031
492,7233;0,150421
493,6875;0,150721
494,6518;0,150902
495,6160;0,150999
496,5802;0,151096
497,5445;0,151273
498,5087;0,15156
499,4729;0,151911
500,4372;0,152228
501,4014;0,152427
502,3656;0,152503
503,3299;0,152542
504,2941;0,152655
505,2583;0,152905
506,2226;0,153263
507,1868;0,15364
508,1510;0,153945
509,1153;0,154147
510,0795;0,154295
511,0437;0,154492
512,0080;0,154844
512,9722;0,155417
513,9365;0,156222
514,9007;0,157206
515,8649;0,158254
516,8292;0,159205
517,7934;0,1599
518,7576;0,160262
519,7219;0,160342
520,6861;0,160292
521,6503;0,160277
522,6146;0,160395
523,5788;0,160641
524,5430;0,160914
525,5073;0,161073
526,4715;0,161018
527,4357;0,160755
528,4000;0,160387
529,3642;0,160036
530,3284;0,15978
531,2927;0,15963
532,2569;0,159551
533,2211;0,159504
534,1854;0,159472
535,1496;0,159453
536,1138;0,159437
537,0781;0,159388
538,0423;0,159254
539,0065;0,159006
539,9708;0,158671
540,9350;0,158338
541,8992;0,158126
542,8635;0,158125
543,8277;0,158358
544,7919;0,158776
545,7562;0,159277
546,7204;0,159752
547,6846;0,160123
548,6489;0,160364
549,6131;0,160508
550,5773;0,160628
551,5416;0,160813
552,5058;0,161129
553,4700;0,161585
554,4343;0,162118
555,3985;0,16261
556,3627;0,162939
557,3270;0,163028
558,2912;0,16287
559,2554;0,162504
560,2197;0,161983
561,1839;0,161353
562,1481;0,160659
563,1124;0,159965
564,0766;0,159347
565,0408;0,158864
566,0051;0,158517
566,9693;0,158241
567,9335;0,157944
568,8978;0,157573
569,8620;0,157153
570,8262;0,156778
571,7905;0,156548
572,7547;0,156509
573,7189;0,156638
574,6832;0,156861
575,6474;0,157099
576,6116;0,157299
577,5759;0,15744
578,5401;0,157518
579,5043;0,157522
580,4686;0,157431
581,4328;0,157231
582,3970;0,156927
583,3613;0,156552
584,3255;0,156159
585,2897;0,155814
586,2540;0,15559
587,2182;0,155544
588,1824;0,155704
589,1467;0,156037
590,1109;0,156446
591,0751;0,156788
592,0394;0,156935
593,0036;0,156834
593,9678;0,156537
594,9321;0,15615
595,8963;0,155768
596,8605;0,155417
597,8248;0,155054
598,7890;0,154618
599,7532;0,154088
600,7175;0,153516
601,6817;0,153
602,6459;0,152619
603,6102;0,152385
604,5744;0,152238
605,5386;0,152083
606,5029;0,151834
607,4671;0,151445
608,4313;0,150906
609,3956;0,150242
610,3598;0,149518
611,3240;0,148854
612,2883;0,148413
613,2525;0,148338
614,2167;0,148657
615,1810;0,149205
616,1452;0,149632
617,1094;0,149532
618,0737;0,14866
619,0379;0,147078
620,0021;0,145123
620,9664;0,143213
621,9306;0,141652
622,8948;0,140531
623,8591;0,139746
624,8233;0,139025
625,7875;0,13836
626,7518;0,137693
627,7160;0,137064
628,6802;0,136542
629,6445;0,136169
630,6087;0,135923
631,5729;0,135738
632,5372;0,135529
633,5014;0,135242
634,4656;0,134878
635,4299;0,134494
636,3941;0,134168
637,3583;0,133958
638,3226;0,133866
639,2868;0,133839
640,2510;0,133794
641,2153;0,133667
642,1795;0,133446
643,1437;0,133178
644,1080;0,132942
645,0722;0,1328
646,0364;0,132765
647,0007;0,132793
647,9649;0,132811
648,9291;0,132751
649,8934;0,132583
650,8576;0,132327
651,8218;0,132042
652,7861;0,131805
653,7503;0,131678
654,7145;0,131692
655,6788;0,131816
656,6430;0,131983
657,6072;0,132121
658,5715;0,132201
659,5357;0,132221
660,4999;0,132148
661,4642;0,131857
662,4284;0,131121
663,3926;0,1297
664,3569;0,127545
665,3211;0,125099
666,2853;0,123434
667,2496;0,12369
668,2138;0,12559
669,1780;0,127358
670,1423;0,128097
671,1065;0,128097
672,0707;0,127524
673,0350;0,126368
673,9992;0,12479
674,9634;0,123108
675,9277;0,121586
676,8919;0,120284
677,8561;0,119109
678,8204;0,117947
679,7846;0,116771
680,7488;0,115621
681,7131;0,114554
682,6773;0,113587
683,6415;0,112703
684,6058;0,111879
685,5700;0,111102
686,5342;0,110378
687,4985;0,109714
688,4627;0,109124
689,4269;0,108596
690,3912;0,108119
691,3554;0,107681
692,3196;0,107268
693,2839;0,106856
694,2481;0,106417
695,2123;0,10593
696,1766;0,105389
697,1408;0,104806
698,1050;0,104207
699,0693;0,103619
700,0335;0,103065
700,9977;0,102556
701,9620;0,102083
702,9262;0,10163
703,8904;0,101147
704,8547;0,100632
705,8189;0,10009
706,7831;0,0995313
707,7474;0,0989602
708,7116;0,0983732
709,6758;0,0977623
710,6401;0,0971223
711,6043;0,0964571
712,5685;0,0957859
713,5328;0,0951484
714,4970;0,0946012
715,4612;0,0925499
716,4255;0,0926585
717,3897;0,0929988
718,3539;0,0933224
719,3182;0,0932942
720,2824;0,092658
721,2466;0,0913975
722,2109;0,0897602
723,1751;0,0881171
724,1393;0,0867662
725,1036;0,0858133
726,0678;0,0851742
727,0320;0,0846678
727,9963;0,0841315
728,9605;0,083496
729,9247;0,0827865
730,8890;0,0820705
731,8532;0,0814018
732,8174;0,080797
733,7817;0,0802479
734,7459;0,079745
735,7101;0,0792915
736,6744;0,0788984
737,6386;0,0785689
738,6028;0,0782865
739,5671;0,0780157
740,5313;0,0777142
741,4955;0,0773495
742,4598;0,0769115
743,4240;0,076413
744,3882;0,0758813
745,3525;0,0753439
746,3167;0,0748188
747,2809;0,0743117
748,2452;0,0738216
749,2094;0,0733482
750,1736;0,0728951
751,1379;0,0724669
752,1021;0,0720636
753,0663;0,0716758
754,0306;0,0712865
754,9948;0,0708762
755,9590;0,070432
756,9233;0,0699533
757,8875;0,0694544
758,8517;0,06896
759,8160;0,068497
760,7802;0,0680846
761,7444;0,0677271
762,7087;0,0674137
763,6729;0,0671246
764,6371;0,0668406
765,6014;0,0665518
766,5656;0,0662596
767,5298;0,0659727
768,4941;0,0656986
769,4583;0,0654361
770,4225;0,0651734
771,3868;0,0648926
772,3510;0,0645803
773,3152;0,064238
774,2795;0,0638858
775,2437;0,0635562
776,2079;0,0632791
777,1722;0,0630648
778,1364;0,0628972
779,1006;0,0627391
780,0649;0,0625502
781,0291;0,0623049
781,9933;0,0620018
782,9576;0,0616599
783,9218;0,0613068
784,8860;0,0609661
785,8503;0,0606524
786,8145;0,0603712
787,7787;0,0601233
788,7430;0,0599065
789,7072;0,0597162
790,6714;0,0595457
791,6357;0,0593874
792,5999;0,0592356
793,5641;0,0590862
794,5284;0,0589356
795,4926;0,0587785
796,4568;0,0586085
797,4211;0,0584222
798,3853;0,0582239
799,3495;0,0580268
800,3138;0,0578488
801,2780;0,0577035
802,2422;0,057593
803,2065;0,057506
804,1707;0,0574221
805,1349;0,0573194
806,0992;0,0571824
807,0634;0,0570046
808,0276;0,0567893
808,9919;0,0565475
809,9561;0,0562955
810,9203;0,0560517
811,8846;0,0558328
812,8488;0,0556494
813,8130;0,0555026
814,7773;0,055385
815,7415;0,0552854
816,7057;0,0551944
817,6700;0,0551085
818,6342;0,0550289
819,5984;0,0549568
820,5627;0,0548894
821,5269;0,0548204
822,4911;0,0547439
823,4554;0,0546593
824,4196;0,0545715
825,3839;0,054488
826,3481;0,0544131
827,3123;0,0543472
828,2766;0,0542885
829,2408;0,0542372
830,2050;0,0541948
831,1693;0,0541593
832,1335;0,0541187
833,0977;0,0540506
834,0620;0,0539302
835,0262;0,0537436
835,9904;0,0534968
836,9547;0,0532149
837,9189;0,0529301
838,8831;0,0526668
839,8474;0,0524323
840,8116;0,052219
841,7758;0,0520133
842,7401;0,0518069
843,7043;0,0516017
844,6685;0,0514093
845,6328;0,0512454
846,5970;0,0511241
847,5612;0,0510519
848,5255;0,0510235
849,4897;0,0510201
850,4539;0,0510124
851,4182;0,0509712
852,3824;0,0508807
853,3466;0,050749
854,3109;0,050607
855,2751;0,0504939
856,2393;0,050437
857,2036;0,0504376
858,1678;0,0504715
859,1320;0,050505
860,0963;0,0505144
861,0605;0,050498
862,0247;0,0504737
862,9890;0,0504664
863,9532;0,0504933
864,9174;0,0505583
865,8817;0,0506542
866,8459;0,050771
867,8101;0,0509013
868,7744;0,0510407
869,7386;0,0511847
870,7028;0,0513251
871,6671;0,0514496
872,6313;0,0515451
873,5955;0,0516038
874,5598;0,0516269
875,5240;0,0516266
876,4882;0,0516225
877,4525;0,0516348
878,4167;0,0516771
879,3809;0,0517531
880,3452;0,0518607
881,3094;0,0519993
882,2736;0,0521779
883,2379;0,0524156
884,2021;0,052734
885,1663;0,0531472
886,1306;0,0536552
887,0948;0,0542454
888,0590;0,0549021
889,0233;0,0556141
889,9875;0,0563763
890,9517;0,0571828
891,9160;0,0580178
892,8802;0,0588497
893,8444;0,0596329
894,8087;0,0603155
895,7729;0,0608497
896,7371;0,0611991
897,7014;0,0613438
898,6656;0,0612821
899,6298;0,0610303
900,5941;0,0606198
901,5583;0,0600918
902,5225;0,0594898
903,4868;0,0588528
904,4510;0,0582115
905,4152;0,0575886
906,3795;0,0570023
907,3437;0,05647
908,3079;0,0560101
909,2722;0,0556403
910,2364;0,0553726
911,2007;0,0552088
912,1649;0,055138
913,1292;0,0551389
914,0934;0,055186
915,0576;0,0552584
916,0219;0,0553452
916,9861;0,0554466
917,9503;0,0555692
918,9146;0,0557193
919,8788;0,0558963
920,8430;0,0560908
921,8073;0,0562866
922,7715;0,056467
923,7357;0,0566217
924,7000;0,0567512
925,6642;0,0568658
926,6284;0,0569801
927,5927;0,0571042
928,5569;0,0572372
929,5211;0,0573661
930,4854;0,0574719
931,4496;0,0575401
932,4138;0,0575694
933,3781;0,0575741
934,3423;0,0575799
935,3065;0,0576142
936,2708;0,0576983
937,2350;0,0578424
938,1992;0,0580466
939,1635;0,0583049
940,1277;0,0586098
941,0919;0,058956
942,0562;0,0593412
943,0204;0,059765
943,9846;0,0602273
944,9489;0,0607279
945,9131;0,0612682
946,8773;0,0618542
947,8416;0,0624971
948,8058;0,063211
949,7700;0,0640073
950,7343;0,0648898
951,6985;0,0658539
952,6627;0,0668913
953,6270;0,0679966
954,5912;0,0691713
955,5554;0,0704216
956,5197;0,0717513
957,4839;0,0731551
958,4481;0,0746165
959,4124;0,0761134
960,3766;0,0776265
961,3408;0,0791453
962,3051;0,0806704
963,2693;0,082209
964,2335;0,0837702
965,1978;0,0853607
966,1620;0,0869841
967,1262;0,0886429
968,0905;0,0903416
969,0547;0,0920898
970,0189;0,0939044
970,9832;0,0958106
971,9474;0,0978406
972,9116;0,10003
973,8759;0,102412
974,8401;0,105014
975,8043;0,10785
976,7686;0,110923
977,7328;0,114222
978,6970;0,11772
979,6613;0,121369
980,6255;0,125095
981,5897;0,128799
982,5540;0,132367
983,5182;0,135686
984,4824;0,138671
985,4467;0,141279
986,4109;0,143516
987,3751;0,145422
988,3394;0,147053
989,3036;0,148462
990,2678;0,149687
991,2321;0,150756
992,1963;0,151693
993,1605;0,152524
994,1248;0,153279
995,0890;0,153987
996,0532;0,154673
997,0175;0,155356
997,9817;0,156047
998,9459;0,156751
999,9102;0,157469
1000,8744;0,158202
1001,8386;0,158956
1002,8029;0,159749
1003,7671;0,160608
1004,7313;0,161574
1005,6956;0,162694
1006,6598;0,164017
1007,6240;0,165585
1008,5883;0,167431
1009,5525;0,169564
1010,5167;0,171971
1011,4810;0,174606
1012,4452;0,177398
1013,4094;0,180259
1014,3737;0,183103
1015,3379;0,185856
1016,3021;0,188472
1017,2664;0,190926
1018,2306;0,193213
1019,1948;0,195339
1020,1591;0,197327
1021,1233;0,199208
1022,0875;0,201026
1023,0518;0,202825
1024,0160;0,204642
1024,9802;0,206487
1025,9445;0,208343
1026,9087;0,21016
1027,8729;0,211873
1028,8372;0,213402
1029,8014;0,214667
1030,7656;0,215587
1031,7299;0,216084
1032,6941;0,216089
1033,6583;0,215558
1034,6226;0,21449
1035,5868;0,212948
1036,5510;0,211054
1037,5153;0,208982
1038,4795;0,20692
1039,4437;0,205038
1040,4080;0,203457
1041,3722;0,202232
1042,3364;0,201355
1043,3007;0,200771
1044,2649;0,200392
1045,2291;0,200122
1046,1934;0,199869
1047,1576;0,199554
1048,1218;0,199106
1049,0861;0,198463
1050,0503;0,197572
1051,0145;0,196396
1051,9788;0,194926
1052,9430;0,193185
1053,9072;0,191222
1054,8715;0,189092
1055,8357;0,186825
1056,7999;0,184412
1057,7642;0,181801
1058,7284;0,178927
1059,6926;0,175743
1060,6569;0,172255
1061,6211;0,168526
1062,5853;0,164668
1063,5496;0,160814
1064,5138;0,157093
1065,4780;0,153602
1066,4423;0,150403
1067,4065;0,147514
1068,3707;0,14492
1069,3350;0,142577
1070,2992;0,140423
1071,2634;0,138397
1072,2277;0,136442
1073,1919;0,134516
1074,1561;0,132591
1075,1204;0,130651
1076,0846;0,128685
1077,0488;0,126696
1078,0131;0,124697
1078,9773;0,122718
1079,9415;0,120808
1080,9058;0,119021
1081,8700;0,117406
1082,8342;0,115989
1083,7985;0,114768
1084,7627;0,113718
1085,7269;0,112801
1086,6912;0,111987
1087,6554;0,111265
1088,6196;0,110638
1089,5839;0,110115
1090,5481;0,109701
1091,5123;0,109395
1092,4766;0,109194
1093,4408;0,109096
1094,4050;0,109104
1095,3693;0,109225
1096,3335;0,109454
1097,2977;0,109779
1098,2620;0,110174
1099,2262;0,110612
1100,1904;0,111063
1101,1547;0,111498
1102,1189;0,111891
1103,0831;0,112215
1104,0474;0,112446
1105,0116;0,112568
1105,9758;0,112578
1106,9401;0,112479
1107,9043;0,112275
1108,8685;0,111958
1109,8328;0,111501
1110,7970;0,110864
1111,7612;0,110008
1112,7255;0,10892
1113,6897;0,107629
1114,6539;0,10621
1115,6182;0,104764
1116,5824;0,103388
1117,5466;0,102144
1118,5109;0,101045
1119,4751;0,100057
1120,4393;0,0991154
1121,4036;0,0981478
1122,3678;0,0970851
1123,3320;0,0958711
1124,2963;0,0944671
1125,2605;0,0928567
1126,2247;0,0910503
1127,1890;0,0890839
1128,1532;0,0870111
1129,1174;0,0848893
1130,0817;0,0827662
1131,0459;0,0806743
1132,0101;0,078635
1132,9744;0,0766685
1133,9386;0,0748018
1134,9028;0,0730713
1135,8671;0,0715165
1136,8313;0,0701708
1137,7955;0,0690535
1138,7598;0,0681664
1139,7240;0,0674983
1140,6882;0,067031
1141,6525;0,0667458
1142,6167;0,0666254
1143,5809;0,0666523
1144,5452;0,066806
1145,5094;0,0670625
1146,4736;0,0673987
1147,4379;0,0677992
1148,4021;0,0682603
1149,3663;0,0687887
1150,3306;0,0693928
1151,2948;0,0700711
1152,2590;0,0708052
1153,2233;0,0715598
1154,1875;0,072289
1155,1517;0,0729446
1156,1160;0,0734804
1157,0802;0,0738507
1158,0444;0,0740057
1159,0087;0,0738883
1159,9729;0,073437
1160,9371;0,0725956
1161,9014;0,0713276
1162,8656;0,0696295
1163,8298;0,0675376
1164,7941;0,065126
1165,7583;0,0624961
1166,7225;0,0597607
1167,6868;0,0570295
1168,6510;0,0543963
1169,6152;0,0519318
1170,5795;0,0496796
1171,5437;0,0476578
1172,5079;0,0458633
1173,4722;0,0442789
1174,4364;0,0428822
1175,4006;0,0416524
1176,3649;0,0405743
1177,3291;0,0396375
1178,2933;0,038834
1179,2576;0,0381545
1180,2218;0,0375883
1181,1860;0,0371237
1182,1503;0,0367505
1183,1145;0,0364609
1184,0787;0,036249
1185,0430;0,0361098
1186,0072;0,0360387
1186,9714;0,0360319
1187,9357;0,0360879
1188,8999;0,0362078
1189,8641;0,0363952
1190,8284;0,0366545
1191,7926;0,0369897
1192,7568;0,0374036
1193,7211;0,0378965
1194,6853;0,0384648
1195,6495;0,0390991
1196,6138;0,0397827
1197,5780;0,0404938
1198,5422;0,04121
1199,5065;0,0416808
1200,4707;0,0423955
1201,4349;0,0430966
1202,3992;0,0437896
1203,3634;0,0444783
1204,3276;0,0451612
1205,2919;0,0458327
1206,2561;0,0464895
1207,2203;0,0471348
1208,1846;0,0477806
1209,1488;0,0484437
1210,1130;0,0491408
1211,0773;0,0498834
1212,0415;0,050677
1213,0057;0,0515222
1213,9700;0,0524151
1214,9342;0,0533484
1215,8984;0,0543105
1216,8627;0,0552847
1217,8269;0,0562513
1218,7911;0,0571953
1219,7554;0,0581075
1220,7196;0,0589849
1221,6838;0,059827
1222,6481;0,0606318
1223,6123;0,0613951
1224,5765;0,0621122
1225,5408;0,0627817
1226,5050;0,0634078
1227,4692;0,0639978
1228,4335;0,0645588
1229,3977;0,0650928
1230,3619;0,0655958
1231,3262;0,0660601
1232,2904;0,0664779
1233,2546;0,066844
1234,2189;0,0671568
1235,1831;0,0674185
1236,1473;0,0676338
1237,1116;0,06781
1238,0758;0,0679561
1239,0400;0,0680794
1240,0043;0,0681825
1240,9685;0,0682597
1241,9327;0,0682982
1242,8970;0,0682823
1243,8612;0,0681992
1244,8254;0,0680438
1245,7897;0,0678194
1246,7539;0,0675358
1247,7181;0,0672052
1248,6824;0,066839
1249,6466;0,0664465
1250,6108;0,066035
1251,5751;0,065611
1252,5393;0,065182
1253,5035;0,0647569
1254,4678;0,064344
1255,4320;0,0639464
1256,3962;0,0635573
1257,3605;0,0631583
1258,3247;0,0627245
1259,2889;0,0622335
1260,2532;0,0616753
1261,2174;0,0610567
1262,1816;0,060396
1263,1459;0,059714
1264,1101;0,0590258
1265,0743;0,0583376
1266,0386;0,0576479
1267,0028;0,0569496
1267,9670;0,0562316
1268,9313;0,0554809
1269,8955;0,0546867
1270,8597;0,0538459
1271,8240;0,052967
1272,7882;0,0520696
1273,7524;0,0511792
1274,7167;0,0503194
1275,6809;0,049507
1276,6451;0,0487496
1277,6094;0,0480454
1278,5736;0,0473842
1279,5378;0,0467506
1280,5021;0,0461302
1281,4663;0,0455163
1282,4305;0,0449146
1283,3948;0,0443408
1284,3590;0,0438126
1285,3232;0,0433402
1286,2875;0,0429215
1287,2517;0,0425455
1288,2159;0,0422009
1289,1802;0,0418861
1290,1444;0,041612
1291,1086;0,0413961
1292,0729;0,0412545
1293,0371;0,0411946
1294,0013;0,0412149
1294,9656;0,0413083
1295,9298;0,0414675
1296,8940;0,0416867
1297,8583;0,0419623
1298,8225;0,0422915
1299,7867;0,0426721
1300,7510;0,0431035
1301,7152;0,0435899
1302,6794;0,0441348
1303,6437;0,0447368
1304,6079;0,0453887
1305,5721;0,046078
1306,5364;0,0467927
1307,5006;0,0475291
1308,4648;0,0482925
1309,4291;0,0490889
1310,3933;0,049913
1311,3575;0,0507405
1312,3218;0,0515311
1313,2860;0,0522438
1314,2502;0,0528499
1315,2145;0,0533339
1316,1787;0,0536827
1317,1429;0,0538751
1318,1072;0,0538864
1319,0714;0,0537093
1320,0356;0,0533737
1320,9999;0,0529459
1321,9641;0,0525039
1322,9283;0,0521092
1323,8926;0,0517934
1324,8568;0,0515603
1325,8210;0,0513968
1326,7853;0,051283
1327,7495;0,0511968
1328,7137;0,0511157
1329,6780;0,0510176
1330,6422;0,0508894
1331,6064;0,0507373
1332,5707;0,0505904
1333,5349;0,0504951
1334,4991;0,0504909
1335,4634;0,0505812
1336,4276;0,0507054
1337,3918;0,0507296
1338,3561;0,0504851
1339,3203;0,049869
1340,2845;0,0489374
1341,2488;0,0478836
1342,2130;0,0469144
1343,1772;0,0461519
1344,1415;0,0456236
1345,1057;0,0452986
1346,0699;0,0451249
1347,0342;0,0450532
1347,9984;0,0450532
1348,9626;0,0451172
1349,9269;0,0452537
1350,8911;0,0454715
1351,8553;0,0457684
1352,8196;0,0461274
1353,7838;0,0465249
1354,7480;0,0469451
1355,7123;0,0473936
1356,6765;0,0478978
