TITLE;
DATA TYPE;INFRARED SPECTRUM
ORIGIN;JASCO
OWNER;
DATE;25/02/28
TIME;16:07:32
SPECTROMETER/DATA SYSTEM;
LOCALE;9226
RESOLUTION;
DELTAX;0,964233
XUNITS;1/CM
YUNITS;ABSORBANCE
FIRSTX;  399,1927
LASTX; 4000,6047
NPOINTS;    3736
FIRSTY;     0,21696
MAXY;     0,25923
MINY;    -0,00441
XYDATA
399,1927;0,216963
400,1569;0,214585
401,1211;0,21286
402,0854;0,211875
403,0496;0,211459
404,0138;0,211306
404,9781;0,211087
405,9423;0,210614
406,9065;0,20996
407,8708;0,209428
408,8350;0,209351
409,7992;0,20988
410,7635;0,210904
411,7277;0,212152
412,6919;0,213396
413,6562;0,214592
414,6204;0,215842
415,5846;0,217244
416,5489;0,218732
417,5131;0,219999
418,4773;0,220656
419,4416;0,220695
420,4058;0,220672
421,3700;0,221147
422,3343;0,2222
423,2985;0,22349
424,2627;0,224508
425,2270;0,224824
426,1912;0,224305
427,1554;0,223192
428,1197;0,221966
429,0839;0,2211
430,0481;0,220863
431,0124;0,221258
431,9766;0,222055
432,9408;0,222922
433,9051;0,223577
434,8693;0,223907
435,8335;0,224005
436,7978;0,224094
437,7620;0,224384
438,7262;0,22495
439,6905;0,225681
440,6547;0,226319
441,6189;0,226564
442,5832;0,226218
443,5474;0,225337
444,5116;0,224242
445,4759;0,223383
446,4401;0,223129
447,4043;0,223643
448,3686;0,224842
449,3328;0,22643
450,2970;0,227981
451,2613;0,22907
452,2255;0,229424
453,1897;0,229007
454,1540;0,228
455,1182;0,226688
456,0824;0,225364
457,0467;0,224249
458,0109;0,223445
458,9751;0,222926
459,9394;0,222607
460,9036;0,222428
461,8678;0,222391
462,8321;0,222532
463,7963;0,222862
464,7605;0,223324
465,7248;0,223783
466,6890;0,224075
467,6532;0,224069
468,6175;0,223708
469,5817;0,223004
470,5459;0,222016
471,5102;0,220849
472,4744;0,219643
473,4386;0,21854
474,4029;0,21762
475,3671;0,216879
476,3313;0,21626
477,2956;0,215696
478,2598;0,215153
479,2240;0,214638
480,1883;0,214185
481,1525;0,213822
482,1167;0,213558
483,0810;0,213374
484,0452;0,21324
485,0094;0,213125
485,9737;0,213009
486,9379;0,212883
487,9021;0,212751
488,8664;0,212638
489,8306;0,212591
490,7948;0,212659
491,7591;0,212848
492,7233;0,213096
493,6875;0,213281
494,6518;0,213289
495,6160;0,213088
496,5802;0,212751
497,5445;0,212426
498,5087;0,21226
499,4729;0,212339
500,4372;0,212641
501,4014;0,213053
502,3656;0,213419
503,3299;0,213613
504,2941;0,213582
505,2583;0,213353
506,2226;0,213006
507,1868;0,212655
508,1510;0,212428
509,1153;0,212423
510,0795;0,212672
511,0437;0,21312
512,0080;0,21366
512,9722;0,214194
513,9365;0,21469
514,9007;0,215189
515,8649;0,215756
516,8292;0,216401
517,7934;0,217019
518,7576;0,217428
519,7219;0,217487
520,6861;0,217194
521,6503;0,216676
522,6146;0,216105
523,5788;0,215624
524,5430;0,215305
525,5073;0,215156
526,4715;0,215145
527,4357;0,21523
528,4000;0,21536
529,3642;0,215469
530,3284;0,215471
531,2927;0,215291
532,2569;0,214906
533,2211;0,214373
534,1854;0,213793
535,1496;0,213245
536,1138;0,212721
537,0781;0,212128
538,0423;0,211361
539,0065;0,2104
539,9708;0,209355
540,9350;0,20843
541,8992;0,207827
542,8635;0,20765
543,8277;0,207855
544,7919;0,208276
545,7562;0,208699
546,7204;0,208952
547,6846;0,208968
548,6489;0,208796
549,6131;0,208558
550,5773;0,208394
551,5416;0,208395
552,5058;0,208577
553,4700;0,208871
554,4343;0,209143
555,3985;0,209252
556,3627;0,209101
557,3270;0,208678
558,2912;0,208044
559,2554;0,207293
560,2197;0,206499
561,1839;0,205692
562,1481;0,204878
563,1124;0,204069
564,0766;0,203304
565,0408;0,202635
566,0051;0,202087
566,9693;0,201635
567,9335;0,201212
568,8978;0,200758
569,8620;0,200267
570,8262;0,1998
571,7905;0,19945
572,7547;0,199275
573,7189;0,199263
574,6832;0,199323
575,6474;0,199331
576,6116;0,199185
577,5759;0,198852
578,5401;0,198371
579,5043;0,197827
580,4686;0,197301
581,4328;0,196852
582,3970;0,196498
583,3613;0,196235
584,3255;0,196044
585,2897;0,195909
586,2540;0,195818
587,2182;0,195764
588,1824;0,195739
589,1467;0,195728
590,1109;0,195712
591,0751;0,195673
592,0394;0,195598
593,0036;0,195484
593,9678;0,195332
594,9321;0,195148
595,8963;0,19493
596,8605;0,194675
597,8248;0,194377
598,7890;0,194037
599,7532;0,193664
600,7175;0,193266
601,6817;0,192846
602,6459;0,192399
603,6102;0,191913
604,5744;0,191386
605,5386;0,19082
606,5029;0,190213
607,4671;0,189547
608,4313;0,188781
609,3956;0,187885
610,3598;0,186883
611,3240;0,185884
612,2883;0,185053
613,2525;0,184534
614,2167;0,184344
615,1810;0,184322
616,1452;0,184162
617,1094;0,183549
618,0737;0,182339
619,0379;0,180645
620,0021;0,178765
620,9664;0,177013
621,9306;0,175575
622,8948;0,174471
623,8591;0,173606
624,8233;0,172799
625,7875;0,172103
626,7518;0,171514
627,7160;0,171057
628,6802;0,170723
629,6445;0,170465
630,6087;0,170204
631,5729;0,169869
632,5372;0,169432
633,5014;0,168911
634,4656;0,168364
635,4299;0,167863
636,3941;0,167462
637,3583;0,167179
638,3226;0,166992
639,2868;0,166848
640,2510;0,166687
641,2153;0,166463
642,1795;0,166168
643,1437;0,165831
644,1080;0,165503
645,0722;0,165234
646,0364;0,165045
647,0007;0,164923
647,9649;0,164825
648,9291;0,164701
649,8934;0,164519
650,8576;0,16428
651,8218;0,16403
652,7861;0,163844
653,7503;0,163799
654,7145;0,163932
655,6788;0,164214
656,6430;0,16456
657,6072;0,164886
658,5715;0,165158
659,5357;0,165382
660,4999;0,165541
661,4642;0,165519
662,4284;0,165099
663,3926;0,164049
664,3569;0,16231
665,3211;0,16024
666,2853;0,158722
667,2496;0,158722
668,2138;0,160087
669,1780;0,161371
670,1423;0,161718
671,1065;0,161255
672,0707;0,16012
673,0350;0,158362
673,9992;0,156186
674,9634;0,153934
675,9277;0,151889
676,8919;0,150131
677,8561;0,148567
678,8204;0,147078
679,7846;0,14564
680,7488;0,144306
681,7131;0,143138
682,6773;0,142136
683,6415;0,141248
684,6058;0,140422
685,5700;0,139642
686,5342;0,138925
687,4985;0,138288
688,4627;0,137732
689,4269;0,137219
690,3912;0,136709
691,3554;0,136181
692,3196;0,135624
693,2839;0,135029
694,2481;0,134385
695,2123;0,133689
696,1766;0,132958
697,1408;0,132233
698,1050;0,131566
699,0693;0,130989
700,0335;0,130501
700,9977;0,130066
701,9620;0,129629
702,9262;0,129142
703,8904;0,128568
704,8547;0,127931
705,8189;0,127277
706,7831;0,126647
707,7474;0,126054
708,7116;0,125486
709,6758;0,12491
710,6401;0,124293
711,6043;0,123618
712,5685;0,122892
713,5328;0,12215
714,4970;0,121454
715,4612;0,119558
716,4255;0,119383
717,3897;0,119402
718,3539;0,119409
719,3182;0,119122
720,2824;0,118323
721,2466;0,116997
722,2109;0,115349
723,1751;0,113691
724,1393;0,112282
725,1036;0,111225
726,0678;0,110465
727,0320;0,109855
727,9963;0,109244
728,9605;0,108549
729,9247;0,107758
730,8890;0,106912
731,8532;0,106064
732,8174;0,105255
733,7817;0,104503
734,7459;0,103814
735,7101;0,103185
736,6744;0,102619
737,6386;0,102119
738,6028;0,101694
739,5671;0,101343
740,5313;0,101047
741,4955;0,100769
742,4598;0,100463
743,4240;0,100095
744,3882;0,0996591
745,3525;0,0991713
746,3167;0,0986594
747,2809;0,0981451
748,2452;0,0976379
749,2094;0,0971385
750,1736;0,0966456
751,1379;0,0961567
752,1021;0,0956654
753,0663;0,0951595
754,0306;0,0946284
754,9948;0,0940752
755,9590;0,093523
756,9233;0,0930063
757,8875;0,0925516
758,8517;0,0921595
759,8160;0,0918037
760,7802;0,0914463
761,7444;0,091061
762,7087;0,0906454
763,6729;0,0902168
764,6371;0,0897968
765,6014;0,0893974
766,5656;0,0890182
767,5298;0,0886535
768,4941;0,0882989
769,4583;0,0879526
770,4225;0,0876103
771,3868;0,087263
772,3510;0,0869015
773,3152;0,0865245
774,2795;0,0861444
775,2437;0,0857826
776,2079;0,0854558
777,1722;0,0851637
778,1364;0,084884
779,1006;0,0845817
780,0649;0,0842241
781,0291;0,0837959
781,9933;0,0833034
782,9576;0,0827712
783,9218;0,0822313
784,8860;0,081713
785,8503;0,0812372
786,8145;0,0808138
787,7787;0,0804443
788,7430;0,080124
789,7072;0,0798446
790,6714;0,0795954
791,6357;0,0793646
792,5999;0,0791393
793,5641;0,0789061
794,5284;0,0786529
795,4926;0,0783734
796,4568;0,0780715
797,4211;0,0777641
798,3853;0,0774779
799,3495;0,0772388
800,3138;0,0770581
801,2780;0,076922
802,2422;0,0767947
803,2065;0,0766331
804,1707;0,0764085
805,1349;0,0761223
806,0992;0,0758046
807,0634;0,075498
808,0276;0,0752347
808,9919;0,0750218
809,9561;0,0748424
810,9203;0,0746703
811,8846;0,0744879
812,8488;0,0742956
813,8130;0,0741087
814,7773;0,0739459
815,7415;0,0738185
816,7057;0,0737257
817,6700;0,0736576
818,6342;0,0736
819,5984;0,0735389
820,5627;0,0734634
821,5269;0,073368
822,4911;0,0732559
823,4554;0,0731416
824,4196;0,0730475
825,3839;0,0729954
826,3481;0,0729933
827,3123;0,073028
828,2766;0,0730682
829,2408;0,0730779
830,2050;0,0730326
831,1693;0,0729282
832,1335;0,0727782
833,0977;0,0726002
834,0620;0,0724043
835,0262;0,0721889
835,9904;0,0719471
836,9547;0,0716781
837,9189;0,0713934
838,8831;0,0711138
839,8474;0,0708586
840,8116;0,070635
841,7758;0,0704353
842,7401;0,0702436
843,7043;0,070047
844,6685;0,0698452
845,6328;0,0696507
846,5970;0,0694807
847,5612;0,0693452
848,5255;0,0692392
849,4897;0,0691428
850,4539;0,0690314
851,4182;0,0688887
852,3824;0,0687173
853,3466;0,0685394
854,3109;0,0683876
855,2751;0,0682904
856,2393;0,0682597
857,2036;0,0682863
858,1678;0,0683464
859,1320;0,0684132
860,0963;0,0684692
861,0605;0,0685121
862,0247;0,0685517
862,9890;0,0686031
863,9532;0,0686778
864,9174;0,0687817
865,8817;0,0689158
866,8459;0,0690803
867,8101;0,0692754
868,7744;0,0694981
869,7386;0,0697374
870,7028;0,0699731
871,6671;0,0701803
872,6313;0,0703382
873,5955;0,0704376
874,5598;0,070484
875,5240;0,0704918
876,4882;0,0704783
877,4525;0,0704587
878,4167;0,0704474
879,3809;0,0704611
880,3452;0,0705197
881,3094;0,0706439
882,2736;0,0708497
883,2379;0,0711457
884,2021;0,071535
885,1663;0,0720199
886,1306;0,0726044
887,0948;0,0732913
888,0590;0,0740763
889,0233;0,0749426
889,9875;0,0758617
890,9517;0,0767997
891,9160;0,0777247
892,8802;0,0786096
893,8444;0,07943
894,8087;0,0801584
895,7729;0,0807611
896,7371;0,0812016
897,7014;0,0814503
898,6656;0,0814954
899,6298;0,0813511
900,5941;0,0810567
901,5583;0,0806666
902,5225;0,080235
903,4868;0,0798013
904,4510;0,0793829
905,4152;0,0789806
906,3795;0,0785919
907,3437;0,0782263
908,3079;0,0779107
909,2722;0,0776831
910,2364;0,0775753
911,2007;0,0775985
912,1649;0,0777383
913,1292;0,0779647
914,0934;0,078249
915,0576;0,0785775
916,0219;0,0789532
916,9861;0,0793857
917,9503;0,0798769
918,9146;0,0804123
919,8788;0,0809621
920,8430;0,081491
921,8073;0,0819696
922,7715;0,0823829
923,7357;0,0827322
924,7000;0,0830311
925,6642;0,0832985
926,6284;0,0835503
927,5927;0,0837916
928,5569;0,0840146
929,5211;0,0842031
930,4854;0,0843421
931,4496;0,0844287
932,4138;0,0844779
933,3781;0,0845192
934,3423;0,0845866
935,3065;0,0847084
936,2708;0,0849013
937,2350;0,0851722
938,1992;0,0855231
939,1635;0,0859553
940,1277;0,0864695
941,0919;0,087065
942,0562;0,0877378
943,0204;0,0884822
943,9846;0,089293
944,9489;0,0901665
945,9131;0,0911012
946,8773;0,0920968
947,8416;0,0931553
948,8058;0,094282
949,7700;0,0954867
950,7343;0,0967834
951,6985;0,0981876
952,6627;0,0997126
953,6270;0,101367
954,5912;0,103151
955,5554;0,105057
956,5197;0,107066
957,4839;0,109152
958,4481;0,111285
959,4124;0,113444
960,3766;0,115615
961,3408;0,117802
962,3051;0,120016
963,2693;0,122269
964,2335;0,12457
965,1978;0,126924
966,1620;0,129333
967,1262;0,131801
968,0905;0,134335
969,0547;0,136949
970,0189;0,139659
970,9832;0,142491
971,9474;0,145472
972,9116;0,148641
973,8759;0,152033
974,8401;0,15568
975,8043;0,159592
976,7686;0,163756
977,7328;0,168131
978,6970;0,17265
979,6613;0,177225
980,6255;0,181756
981,5897;0,186134
982,5540;0,190254
983,5182;0,194033
984,4824;0,197415
985,4467;0,200386
986,4109;0,202973
987,3751;0,205228
988,3394;0,207213
989,3036;0,208985
990,2678;0,210581
991,2321;0,212018
992,1963;0,213301
993,1605;0,214432
994,1248;0,215422
995,0890;0,216286
996,0532;0,21705
997,0175;0,217738
997,9817;0,218374
998,9459;0,218984
999,9102;0,219598
1000,8744;0,22026
1001,8386;0,221029
1002,8029;0,221974
1003,7671;0,223163
1004,7313;0,22465
1005,6956;0,22647
1006,6598;0,228631
1007,6240;0,231122
1008,5883;0,233911
1009,5525;0,236945
1010,5167;0,240152
1011,4810;0,243434
1012,4452;0,246671
1013,4094;0,249729
1014,3737;0,252477
1015,3379;0,254801
1016,3021;0,25663
1017,2664;0,257942
1018,2306;0,258764
1019,1948;0,259164
1020,1591;0,25923
1021,1233;0,259059
1022,0875;0,258739
1023,0518;0,258347
1024,0160;0,257943
1024,9802;0,257565
1025,9445;0,257226
1026,9087;0,256914
1027,8729;0,256594
1028,8372;0,256217
1029,8014;0,255726
1030,7656;0,255063
1031,7299;0,254176
1032,6941;0,253027
1033,6583;0,251601
1034,6226;0,249918
1035,5868;0,24804
1036,5510;0,246062
1037,5153;0,244097
1038,4795;0,242254
1039,4437;0,240607
1040,4080;0,23919
1041,3722;0,237993
1042,3364;0,23697
1043,3007;0,236059
1044,2649;0,235186
1045,2291;0,234284
1046,1934;0,233293
1047,1576;0,232166
1048,1218;0,230866
1049,0861;0,229366
1050,0503;0,227651
1051,0145;0,22572
1051,9788;0,223589
1052,9430;0,221295
1053,9072;0,218884
1054,8715;0,216392
1055,8357;0,213827
1056,7999;0,211163
1057,7642;0,208347
1058,7284;0,205324
1059,6926;0,202074
1060,6569;0,198629
1061,6211;0,195078
1062,5853;0,191544
1063,5496;0,188149
1064,5138;0,184981
1065,4780;0,182085
1066,4423;0,179462
1067,4065;0,177084
1068,3707;0,174914
1069,3350;0,172911
1070,2992;0,171033
1071,2634;0,169234
1072,2277;0,167458
1073,1919;0,16565
1074,1561;0,16376
1075,1204;0,161757
1076,0846;0,159635
1077,0488;0,157412
1078,0131;0,155128
1078,9773;0,152837
1079,9415;0,150599
1080,9058;0,14847
1081,8700;0,146497
1082,8342;0,144706
1083,7985;0,143101
1084,7627;0,14167
1085,7269;0,140395
1086,6912;0,139263
1087,6554;0,138272
1088,6196;0,137428
1089,5839;0,136739
1090,5481;0,136201
1091,5123;0,135802
1092,4766;0,135526
1093,4408;0,135355
1094,4050;0,135282
1095,3693;0,135301
1096,3335;0,135411
1097,2977;0,135601
1098,2620;0,13585
1099,2262;0,136125
1100,1904;0,136387
1101,1547;0,136597
1102,1189;0,136723
1103,0831;0,136739
1104,0474;0,136635
1105,0116;0,136413
1105,9758;0,136086
1106,9401;0,135673
1107,9043;0,135191
1108,8685;0,13464
1109,8328;0,134005
1110,7970;0,133247
1111,7612;0,132329
1112,7255;0,131228
1113,6897;0,129957
1114,6539;0,128575
1115,6182;0,127168
1116,5824;0,125826
1117,5466;0,124613
1118,5109;0,123543
1119,4751;0,122582
1120,4393;0,121657
1121,4036;0,120677
1122,3678;0,119561
1123,3320;0,11825
1124,2963;0,116713
1125,2605;0,114955
1126,2247;0,113005
1127,1890;0,110906
1128,1532;0,108708
1129,1174;0,106456
1130,0817;0,104188
1131,0459;0,101938
1132,0101;0,0997393
1132,9744;0,0976294
1133,9386;0,0956508
1134,9028;0,093845
1135,8671;0,0922464
1136,8313;0,0908774
1137,7955;0,0897475
1138,7598;0,0888549
1139,7240;0,0881884
1140,6882;0,0877282
1141,6525;0,0874483
1142,6167;0,0873193
1143,5809;0,0873142
1144,5452;0,0874131
1145,5094;0,0876048
1146,4736;0,0878833
1147,4379;0,088242
1148,4021;0,0886684
1149,3663;0,0891423
1150,3306;0,0896383
1151,2948;0,0901294
1152,2590;0,0905893
1153,2233;0,090991
1154,1875;0,0913035
1155,1517;0,0914889
1156,1160;0,0915015
1157,0802;0,0912891
1158,0444;0,0907966
1159,0087;0,0899713
1159,9729;0,0887694
1160,9371;0,0871646
1161,9014;0,0851562
1162,8656;0,0827751
1163,8298;0,0800827
1164,7941;0,0771644
1165,7583;0,0741185
1166,7225;0,0710449
1167,6868;0,0680367
1168,6510;0,065174
1169,6152;0,0625196
1170,5795;0,060115
1171,5437;0,0579774
1172,5079;0,0561002
1173,4722;0,054458
1174,4364;0,0530165
1175,4006;0,0517435
1176,3649;0,0506175
1177,3291;0,0496296
1178,2933;0,0487792
1179,2576;0,048067
1180,2218;0,0474881
1181,1860;0,0470302
1182,1503;0,0466768
1183,1145;0,0464124
1184,0787;0,0462281
1185,0430;0,0461221
1186,0072;0,0460968
1186,9714;0,0461551
1187,9357;0,0462973
1188,8999;0,0465213
1189,8641;0,046825
1190,8284;0,0472095
1191,7926;0,0476782
1192,7568;0,0482352
1193,7211;0,0488806
1194,6853;0,0496075
1195,6495;0,0504019
1196,6138;0,0512446
1197,5780;0,052115
1198,5422;0,052995
1199,5065;0,0536378
1200,4707;0,0545307
1201,4349;0,0554125
1202,3992;0,0562845
1203,3634;0,05715
1204,3276;0,0580118
1205,2919;0,0588708
1206,2561;0,0597271
1207,2203;0,0605832
1208,1846;0,0614482
1209,1488;0,062338
1210,1130;0,0632735
1211,0773;0,064274
1212,0415;0,0653513
1213,0057;0,0665059
1213,9700;0,0677273
1214,9342;0,0689981
1215,8984;0,0702982
1216,8627;0,0716061
1217,8269;0,0729005
1218,7911;0,0741652
1219,7554;0,0753888
1220,7196;0,0765653
1221,6838;0,077692
1222,6481;0,0787666
1223,6123;0,0797856
1224,5765;0,080744
1225,5408;0,0816387
1226,5050;0,0824704
1227,4692;0,083244
1228,4335;0,0839654
1229,3977;0,0846377
1230,3619;0,0852586
1231,3262;0,0858214
1232,2904;0,0863177
1233,2546;0,0867402
1234,2189;0,0870845
1235,1831;0,0873492
1236,1473;0,0875366
1237,1116;0,0876535
1238,0758;0,0877111
1239,0400;0,0877231
1240,0043;0,0876999
1240,9685;0,0876436
1241,9327;0,0875459
1242,8970;0,0873899
1243,8612;0,0871583
1244,8254;0,0868401
1245,7897;0,0864366
1246,7539;0,0859611
1247,7181;0,0854349
1248,6824;0,08488
1249,6466;0,0843129
1250,6108;0,0837414
1251,5751;0,0831649
1252,5393;0,0825793
1253,5035;0,0819826
1254,4678;0,0813783
1255,4320;0,0807729
1256,3962;0,0801708
1257,3605;0,0795672
1258,3247;0,0789471
1259,2889;0,0782886
1260,2532;0,0775719
1261,2174;0,0767866
1262,1816;0,0759356
1263,1459;0,0750321
1264,1101;0,0740935
1265,0743;0,0731362
1266,0386;0,0721702
1267,0028;0,0711975
1267,9670;0,0702119
1268,9313;0,0692025
1269,8955;0,0681596
1270,8597;0,0670813
1271,8240;0,0659767
1272,7882;0,0648645
1273,7524;0,0637676
1274,7167;0,0627074
1275,6809;0,0616988
1276,6451;0,0607484
1277,6094;0,0598541
1278,5736;0,0590063
1279,5378;0,0581914
1280,5021;0,057398
1281,4663;0,0566227
1282,4305;0,0558723
1283,3948;0,0551606
1284,3590;0,0545023
1285,3232;0,0539065
1286,2875;0,0533752
1287,2517;0,0529049
1288,2159;0,0524914
1289,1802;0,0521333
1290,1444;0,0518337
1291,1086;0,0515989
1292,0729;0,0514362
1293,0371;0,0513524
1294,0013;0,0513522
1294,9656;0,0514369
1295,9298;0,0516035
1296,8940;0,0518454
1297,8583;0,0521541
1298,8225;0,0525216
1299,7867;0,0529422
1300,7510;0,0534124
1301,7152;0,0539342
1302,6794;0,0545096
1303,6437;0,0551399
1304,6079;0,055825
1305,5721;0,05656
1306,5364;0,0573364
1307,5006;0,0581446
1308,4648;0,0589778
1309,4291;0,0598313
1310,3933;0,0606982
1311,3575;0,0615628
1312,3218;0,0623991
1313,2860;0,063175
1314,2502;0,0638612
1315,2145;0,0644347
1316,1787;0,0648754
1317,1429;0,0651614
1318,1072;0,065273
1319,0714;0,0652066
1320,0356;0,0649891
1320,9999;0,0646764
1321,9641;0,064335
1322,9283;0,0640192
1323,8926;0,063759
1324,8568;0,0635608
1325,8210;0,0634146
1326,7853;0,0633037
1327,7495;0,0632096
1328,7137;0,0631144
1329,6780;0,0629996
1330,6422;0,0628495
1331,6064;0,0626571
1332,5707;0,0624285
1333,5349;0,0621857
1334,4991;0,061955
1335,4634;0,0617497
1336,4276;0,0615515
1337,3918;0,0612976
1338,3561;0,0608969
1339,3203;0,0602887
1340,2845;0,0595048
1341,2488;0,0586618
1342,2130;0,0578871
1343,1772;0,0572585
1344,1415;0,0567993
1345,1057;0,0565004
1346,0699;0,0563402
1347,0342;0,0562951
1347,9984;0,0563475
1348,9626;0,0564898
1349,9269;0,0567226
1350,8911;0,0570473
1351,8553;0,05746
1352,8196;0,0579499
1353,7838;0,0585017
1354,7480;0,0590991
1355,7123;0,0597302
1356,6765;0,0603918
1357,6407;0,0610925
1358,6050;0,0618511
1359,5692;0,0626851
1360,5334;0,0635809
