TITLE;
DATA TYPE;INFRARED SPECTRUM
ORIGIN;JASCO
OWNER;
DATE;25/02/28
TIME;16:27:06
SPECTROMETER/DATA SYSTEM;
LOCALE;9226
RESOLUTION;
DELTAX;0,964233
XUNITS;1/CM
YUNITS;ABSORBANCE
FIRSTX;  399,1927
LASTX; 4000,6047
NPOINTS;    3736
FIRSTY;     0,13497
MAXY;     0,16558
MINY;    -0,00507
XYDATA
399,1927;0,134969
400,1569;0,133046
401,1211;0,131357
402,0854;0,130113
403,0496;0,129272
404,0138;0,128634
404,9781;0,12793
405,9423;0,126935
406,9065;0,125577
407,8708;0,123983
408,8350;0,122419
409,7992;0,121182
410,7635;0,120525
411,7277;0,12059
412,6919;0,121384
413,6562;0,122792
414,6204;0,124643
415,5846;0,126731
416,5489;0,128782
417,5131;0,130387
418,4773;0,131123
419,4416;0,130951
420,4058;0,13036
421,3700;0,129879
422,3343;0,129663
423,2985;0,129574
424,2627;0,129406
425,2270;0,129038
426,1912;0,128486
427,1554;0,127871
428,1197;0,127336
429,0839;0,126976
430,0481;0,126819
431,0124;0,126835
431,9766;0,126959
432,9408;0,127099
433,9051;0,127144
434,8693;0,12699
435,8335;0,126587
436,7978;0,125974
437,7620;0,125283
438,7262;0,124682
439,6905;0,124301
440,6547;0,124164
441,6189;0,124157
442,5832;0,124047
443,5474;0,123605
444,5116;0,122763
445,4759;0,121686
446,4401;0,120682
447,4043;0,12002
448,3686;0,119799
449,3328;0,119916
450,2970;0,12014
451,2613;0,120248
452,2255;0,120138
453,1897;0,119853
454,1540;0,119504
455,1182;0,119172
456,0824;0,118854
457,0467;0,118478
458,0109;0,117967
458,9751;0,117302
459,9394;0,116511
460,9036;0,115634
461,8678;0,114713
462,8321;0,113826
463,7963;0,113125
464,7605;0,112811
465,7248;0,113031
466,6890;0,113759
467,6532;0,114757
468,6175;0,115662
469,5817;0,11613
470,5459;0,115972
471,5102;0,115247
472,4744;0,114257
473,4386;0,11338
474,4029;0,11285
475,3671;0,11267
476,3313;0,112702
477,2956;0,112809
478,2598;0,112935
479,2240;0,113103
480,1883;0,113357
481,1525;0,1137
482,1167;0,114073
483,0810;0,114385
484,0452;0,114582
485,0094;0,114687
485,9737;0,114784
486,9379;0,114958
487,9021;0,115247
488,8664;0,115637
489,8306;0,116084
490,7948;0,11654
491,7591;0,116961
492,7233;0,117307
493,6875;0,117539
494,6518;0,117642
495,6160;0,117639
496,5802;0,117603
497,5445;0,117633
498,5087;0,117813
499,4729;0,118173
500,4372;0,118671
501,4014;0,119203
502,3656;0,11965
503,3299;0,119934
504,2941;0,12005
505,2583;0,120052
506,2226;0,120014
507,1868;0,120003
508,1510;0,120065
509,1153;0,120213
510,0795;0,120441
511,0437;0,120735
512,0080;0,12109
512,9722;0,121526
513,9365;0,122073
514,9007;0,122749
515,8649;0,123526
516,8292;0,124301
517,7934;0,124919
518,7576;0,125247
519,7219;0,125261
520,6861;0,125065
521,6503;0,124831
522,6146;0,124719
523,5788;0,124808
524,5430;0,125078
525,5073;0,12541
526,4715;0,12565
527,4357;0,125697
528,4000;0,125549
529,3642;0,125289
530,3284;0,125017
531,2927;0,12481
532,2569;0,124695
533,2211;0,124659
534,1854;0,124667
535,1496;0,124682
536,1138;0,124672
537,0781;0,124625
538,0423;0,124547
539,0065;0,124476
539,9708;0,124465
540,9350;0,124563
541,8992;0,124785
542,8635;0,125096
543,8277;0,125415
544,7919;0,125655
545,7562;0,125755
546,7204;0,125713
547,6846;0,125582
548,6489;0,12544
549,6131;0,125366
550,5773;0,125416
551,5416;0,125612
552,5058;0,125944
553,4700;0,126365
554,4343;0,1268
555,3985;0,127162
556,3627;0,127385
557,3270;0,127441
558,2912;0,127345
559,2554;0,12713
560,2197;0,126827
561,1839;0,126456
562,1481;0,126043
563,1124;0,125627
564,0766;0,125266
565,0408;0,125004
566,0051;0,124849
566,9693;0,124765
567,9335;0,124693
568,8978;0,124593
569,8620;0,124471
570,8262;0,124376
571,7905;0,124364
572,7547;0,124462
573,7189;0,124654
574,6832;0,124889
575,6474;0,125108
576,6116;0,12527
577,5759;0,125362
578,5401;0,125393
579,5043;0,125375
580,4686;0,12531
581,4328;0,125186
582,3970;0,124986
583,3613;0,124711
584,3255;0,124393
585,2897;0,124108
586,2540;0,123943
587,2182;0,123965
588,1824;0,124179
589,1467;0,124514
590,1109;0,124837
591,0751;0,125012
592,0394;0,124958
593,0036;0,124691
593,9678;0,124311
594,9321;0,123933
595,8963;0,12363
596,8605;0,123402
597,8248;0,123195
598,7890;0,122945
599,7532;0,122619
600,7175;0,122238
601,6817;0,121852
602,6459;0,121517
603,6102;0,121259
604,5744;0,121077
605,5386;0,120947
606,5029;0,12083
607,4671;0,120674
608,4313;0,120422
609,3956;0,120032
610,3598;0,119527
611,3240;0,119019
612,2883;0,118686
613,2525;0,118693
614,2167;0,119077
615,1810;0,119673
616,1452;0,120135
617,1094;0,120086
618,0737;0,119322
619,0379;0,11794
620,0021;0,116273
620,9664;0,114706
621,9306;0,113488
622,8948;0,112669
623,8591;0,11214
624,8233;0,111658
625,7875;0,111243
626,7518;0,110859
627,7160;0,110531
628,6802;0,110288
629,6445;0,110132
630,6087;0,110025
631,5729;0,109915
632,5372;0,109754
633,5014;0,109522
634,4656;0,109235
635,4299;0,108944
636,3941;0,108714
637,3583;0,108594
638,3226;0,108588
639,2868;0,108651
640,2510;0,108706
641,2153;0,10869
642,1795;0,108598
643,1437;0,108482
644,1080;0,10842
645,0722;0,108465
646,0364;0,108602
647,0007;0,108757
647,9649;0,108831
648,9291;0,108759
649,8934;0,108546
650,8576;0,10826
651,8218;0,107998
652,7861;0,107841
653,7503;0,107824
654,7145;0,107921
655,6788;0,108057
656,6430;0,10815
657,6072;0,108164
658,5715;0,108135
659,5357;0,108118
660,4999;0,108091
661,4642;0,107887
662,4284;0,107218
663,3926;0,105816
664,3569;0,103654
665,3211;0,101238
666,2853;0,0997294
667,2496;0,100372
668,2138;0,102902
669,1780;0,105293
670,1423;0,106346
671,1065;0,106346
672,0707;0,105661
673,0350;0,104461
673,9992;0,103004
674,9634;0,101619
675,9277;0,100512
676,8919;0,0996583
677,8561;0,0988952
678,8204;0,0980873
679,7846;0,0972131
680,7488;0,0963232
681,7131;0,0954771
682,6773;0,0946943
683,6415;0,0939728
684,6058;0,0933124
685,5700;0,092724
686,5342;0,0922128
687,4985;0,0917625
688,4627;0,0913529
689,4269;0,0909468
690,3912;0,0905335
691,3554;0,0901256
692,3196;0,0897356
693,2839;0,0893563
694,2481;0,0889612
695,2123;0,0885229
696,1766;0,0880351
697,1408;0,0875208
698,1050;0,0870211
699,0693;0,0865728
700,0335;0,0861877
700,9977;0,0858474
701,9620;0,0855151
702,9262;0,0851556
703,8904;0,0847262
704,8547;0,0842435
705,8189;0,0837359
706,7831;0,0832304
707,7474;0,0827378
708,7116;0,0822531
709,6758;0,0817641
710,6401;0,0812602
711,6043;0,0807371
712,5685;0,0802018
713,5328;0,0796799
714,4970;0,0792184
715,4612;0,0773176
716,4255;0,0774487
717,3897;0,0778116
718,3539;0,078185
719,3182;0,0782515
720,2824;0,0777521
721,2466;0,0766457
722,2109;0,0751455
723,1751;0,0735968
724,1393;0,072295
725,1036;0,0713676
726,0678;0,0707677
727,0320;0,0703502
727,9963;0,0699704
728,9605;0,0695481
729,9247;0,069074
730,8890;0,0685735
731,8532;0,0680714
732,8174;0,0675797
733,7817;0,0671075
734,7459;0,0666709
735,7101;0,0662912
736,6744;0,0659806
737,6386;0,0657313
738,6028;0,0655142
739,5671;0,0652903
740,5313;0,0650251
741,4955;0,0647016
742,4598;0,0643245
743,4240;0,0639164
744,3882;0,0635068
745,3525;0,0631176
746,3167;0,0627531
747,2809;0,0623997
748,2452;0,0620368
749,2094;0,061652
750,1736;0,0612505
751,1379;0,0608512
752,1021;0,0604723
753,0663;0,0601177
754,0306;0,059773
754,9948;0,0594158
755,9590;0,0590307
756,9233;0,0586216
757,8875;0,0582107
758,8517;0,0578282
759,8160;0,0574973
760,7802;0,0572239
761,7444;0,0569951
762,7087;0,0567868
763,6729;0,0565743
764,6371;0,056343
765,6014;0,056092
766,5656;0,0558309
767,5298;0,0555723
768,4941;0,0553234
769,4583;0,0550827
770,4225;0,0548423
771,3868;0,0545937
772,3510;0,0543339
773,3152;0,0540669
774,2795;0,053802
775,2437;0,0535505
776,2079;0,0533219
777,1722;0,0531211
778,1364;0,0529467
779,1006;0,0527892
780,0649;0,0526328
781,0291;0,052459
781,9933;0,052254
782,9576;0,0520145
783,9218;0,0517495
784,8860;0,0514762
785,8503;0,0512129
786,8145;0,0509716
787,7787;0,0507555
788,7430;0,0505611
789,7072;0,0503817
790,6714;0,0502112
791,6357;0,0500452
792,5999;0,0498806
793,5641;0,0497158
794,5284;0,0495509
795,4926;0,0493876
796,4568;0,0492294
797,4211;0,0490805
798,3853;0,0489459
799,3495;0,0488302
800,3138;0,0487359
801,2780;0,0486605
802,2422;0,0485945
803,2065;0,048522
804,1707;0,0484267
805,1349;0,0482994
806,0992;0,0481435
807,0634;0,0479732
808,0276;0,047806
808,9919;0,0476532
809,9561;0,0475148
810,9203;0,0473822
811,8846;0,0472462
812,8488;0,0471046
813,8130;0,0469646
814,7773;0,046839
815,7415;0,0467397
816,7057;0,0466714
817,6700;0,0466289
818,6342;0,0465986
819,5984;0,0465637
820,5627;0,046511
821,5269;0,0464374
822,4911;0,0463521
823,4554;0,0462738
824,4196;0,0462219
825,3839;0,0462062
826,3481;0,0462208
827,3123;0,0462467
828,2766;0,0462604
829,2408;0,0462452
830,2050;0,0461981
831,1693;0,0461279
832,1335;0,0460479
833,0977;0,0459667
834,0620;0,045883
835,0262;0,0457871
835,9904;0,045667
836,9547;0,0455148
837,9189;0,0453316
838,8831;0,0451261
839,8474;0,0449109
840,8116;0,0446965
841,7758;0,0444886
842,7401;0,044288
843,7043;0,0440953
844,6685;0,0439144
845,6328;0,0437541
846,5970;0,043625
847,5612;0,0435328
848,5255;0,0434721
849,4897;0,0434252
850,4539;0,043368
851,4182;0,0432808
852,3824;0,0431593
853,3466;0,0430187
854,3109;0,0428885
855,2751;0,042798
856,2393;0,0427624
857,2036;0,0427752
858,1678;0,0428129
859,1320;0,0428479
860,0963;0,0428625
861,0605;0,0428556
862,0247;0,0428402
862,9890;0,0428331
863,9532;0,0428464
864,9174;0,0428828
865,8817;0,0429376
866,8459;0,0430029
867,8101;0,0430709
868,7744;0,0431362
869,7386;0,0431955
870,7028;0,0432484
871,6671;0,0432969
872,6313;0,0433437
873,5955;0,0433897
874,5598;0,0434324
875,5240;0,0434678
876,4882;0,0434934
877,4525;0,0435112
878,4167;0,0435273
879,3809;0,0435483
880,3452;0,0435788
881,3094;0,0436229
882,2736;0,0436888
883,2379;0,0437928
884,2021;0,043958
885,1663;0,0442063
886,1306;0,0445492
887,0948;0,0449829
888,0590;0,04549
889,0233;0,0460473
889,9875;0,0466331
890,9517;0,0472296
891,9160;0,0478207
892,8802;0,0483881
893,8444;0,0489092
894,8087;0,0493588
895,7729;0,0497127
896,7371;0,0499516
897,7014;0,0500636
898,6656;0,0500459
899,6298;0,0499055
900,5941;0,0496591
901,5583;0,0493307
902,5225;0,0489484
903,4868;0,0485388
904,4510;0,0481242
905,4152;0,0477206
906,3795;0,0473398
907,3437;0,0469923
908,3079;0,0466897
909,2722;0,0464458
910,2364;0,0462742
911,2007;0,0461836
912,1649;0,0461736
913,1292;0,0462333
914,0934;0,046344
915,0576;0,0464863
916,0219;0,046647
916,9861;0,0468216
917,9503;0,0470112
918,9146;0,0472152
919,8788;0,0474259
920,8430;0,047628
921,8073;0,047804
922,7715;0,047943
923,7357;0,0480454
924,7000;0,0481215
925,6642;0,0481852
926,6284;0,0482451
927,5927;0,0483007
928,5569;0,0483436
929,5211;0,0483626
930,4854;0,0483503
931,4496;0,0483066
932,4138;0,0482384
933,3781;0,0481581
934,3423;0,0480805
935,3065;0,0480201
936,2708;0,047989
937,2350;0,0479951
938,1992;0,048041
939,1635;0,0481254
940,1277;0,0482462
941,0919;0,0484037
942,0562;0,048602
943,0204;0,0488455
943,9846;0,0491338
944,9489;0,0494584
945,9131;0,0498057
946,8773;0,0501648
947,8416;0,0505363
948,8058;0,0509357
949,7700;0,0513867
950,7343;0,0519102
951,6985;0,052513
952,6627;0,0531866
953,6270;0,0539132
954,5912;0,054677
955,5554;0,0554711
956,5197;0,0562979
957,4839;0,0571632
958,4481;0,0580701
959,4124;0,059017
960,3766;0,0599998
961,3408;0,0610151
962,3051;0,0620617
963,2693;0,0631393
964,2335;0,0642478
965,1978;0,065388
966,1620;0,0665645
967,1262;0,0677875
968,0905;0,0690715
969,0547;0,0704306
970,0189;0,071874
970,9832;0,0734063
971,9474;0,0750332
972,9116;0,0767694
973,8759;0,0786418
974,8401;0,0806851
975,8043;0,0829299
976,7686;0,0853884
977,7328;0,0880465
978,6970;0,0908642
979,6613;0,0937831
980,6255;0,0967349
981,5897;0,0996481
982,5540;0,102451
983,5182;0,105074
984,4824;0,107461
985,4467;0,109575
986,4109;0,111403
987,3751;0,112964
988,3394;0,114292
989,3036;0,115429
990,2678;0,116413
991,2321;0,117275
992,1963;0,118038
993,1605;0,118721
994,1248;0,119339
995,0890;0,119903
996,0532;0,120419
997,0175;0,120892
997,9817;0,121327
998,9459;0,121734
999,9102;0,122125
1000,8744;0,122513
1001,8386;0,122913
1002,8029;0,123343
1003,7671;0,123828
1004,7313;0,124404
1005,6956;0,125114
1006,6598;0,126006
1007,6240;0,12712
1008,5883;0,128479
1009,5525;0,130084
1010,5167;0,131911
1011,4810;0,133913
1012,4452;0,136021
1013,4094;0,138162
1014,3737;0,140265
1015,3379;0,142273
1016,3021;0,144156
1017,2664;0,145904
1018,2306;0,147529
1019,1948;0,149048
1020,1591;0,150484
1021,1233;0,151863
1022,0875;0,153212
1023,0518;0,154562
1024,0160;0,155937
1024,9802;0,157347
1025,9445;0,158777
1026,9087;0,160195
1027,8729;0,161551
1028,8372;0,162797
1029,8014;0,163881
1030,7656;0,16475
1031,7299;0,16534
1032,6941;0,165578
1033,6583;0,165401
1034,6226;0,16478
1035,5868;0,163749
1036,5510;0,16241
1037,5153;0,160915
1038,4795;0,159431
1039,4437;0,1581
1040,4080;0,157012
1041,3722;0,156199
1042,3364;0,155642
1043,3007;0,155288
1044,2649;0,155068
1045,2291;0,154912
1046,1934;0,154751
1047,1576;0,154528
1048,1218;0,154195
1049,0861;0,153716
1050,0503;0,153069
1051,0145;0,15224
1051,9788;0,151227
1052,9430;0,15004
1053,9072;0,148696
1054,8715;0,147213
1055,8357;0,145602
1056,7999;0,143847
1057,7642;0,141911
1058,7284;0,139748
1059,6926;0,137326
1060,6569;0,134656
1061,6211;0,131796
1062,5853;0,128845
1063,5496;0,125915
1064,5138;0,123098
1065,4780;0,120458
1066,4423;0,118023
1067,4065;0,1158
1068,3707;0,113779
1069,3350;0,111937
1070,2992;0,110242
1071,2634;0,108652
1072,2277;0,107128
1073,1919;0,105635
1074,1561;0,10415
1075,1204;0,102661
1076,0846;0,101161
1077,0488;0,0996508
1078,0131;0,0981378
1078,9773;0,0966415
1079,9415;0,0951943
1080,9058;0,0938354
1081,8700;0,092599
1082,8342;0,0915034
1083,7985;0,0905462
1084,7627;0,0897097
1085,7269;0,0889722
1086,6912;0,0883195
1087,6554;0,0877494
1088,6196;0,0872694
1089,5839;0,0868892
1090,5481;0,0866139
1091,5123;0,0864419
1092,4766;0,0863682
1093,4408;0,0863885
1094,4050;0,0865004
1095,3693;0,0867017
1096,3335;0,086986
1097,2977;0,0873402
1098,2620;0,0877454
1099,2262;0,0881795
1100,1904;0,0886207
1101,1547;0,0890481
1102,1189;0,0894409
1103,0831;0,0897786
1104,0474;0,0900436
1105,0116;0,0902242
1105,9758;0,0903167
1106,9401;0,0903224
1107,9043;0,0902409
1108,8685;0,090062
1109,8328;0,0897631
1110,7970;0,0893147
1111,7612;0,0886942
1112,7255;0,087901
1113,6897;0,0869664
1114,6539;0,0859518
1115,6182;0,0849331
1116,5824;0,0839797
1117,5466;0,0831338
1118,5109;0,0824003
1119,4751;0,0817486
1120,4393;0,081124
1121,4036;0,0804631
1122,3678;0,0797071
1123,3320;0,078812
1124,2963;0,0777533
1125,2605;0,0765284
1126,2247;0,075155
1127,1890;0,0736659
1128,1532;0,0720997
1129,1174;0,0704913
1130,0817;0,0688661
1131,0459;0,0672413
1132,0101;0,0656323
1132,9744;0,0640613
1133,9386;0,0625608
1134,9028;0,0611697
1135,8671;0,0599243
1136,8313;0,0588489
1137,7955;0,0579518
1138,7598;0,0572272
1139,7240;0,0566616
1140,6882;0,0562402
1141,6525;0,0559494
1142,6167;0,0557766
1143,5809;0,0557087
1144,5452;0,0557314
1145,5094;0,0558305
1146,4736;0,0559939
1147,4379;0,0562137
1148,4021;0,0564865
1149,3663;0,0568122
1150,3306;0,0571924
1151,2948;0,0576262
1152,2590;0,0581067
1153,2233;0,0586176
1154,1875;0,0591321
1155,1517;0,059614
1156,1160;0,0600213
1157,0802;0,0603096
1158,0444;0,0604331
1159,0087;0,0603445
1159,9729;0,0599963
1160,9371;0,0593457
1161,9014;0,0583639
1162,8656;0,0570475
1163,8298;0,0554245
1164,7941;0,0535535
1165,7583;0,0515134
1166,7225;0,0493912
1167,6868;0,0472696
1168,6510;0,0452196
1169,6152;0,0432967
1170,5795;0,0415387
1171,5437;0,0399652
1172,5079;0,0385782
1173,4722;0,037366
1174,4364;0,0363091
1175,4006;0,0353874
1176,3649;0,0345843
1177,3291;0,0338887
1178,2933;0,0332932
1179,2576;0,0327919
1180,2218;0,0323785
1181,1860;0,0320461
1182,1503;0,031787
1183,1145;0,0315929
1184,0787;0,0314553
1185,0430;0,0313663
1186,0072;0,0313202
1186,9714;0,0313149
1187,9357;0,0313522
1188,8999;0,0314369
1189,8641;0,031575
1190,8284;0,0317712
1191,7926;0,0320282
1192,7568;0,0323454
1193,7211;0,0327194
1194,6853;0,0331442
1195,6495;0,0336117
1196,6138;0,034113
1197,5780;0,0346386
1198,5422;0,0351796
1199,5065;0,0355158
1200,4707;0,0360869
1201,4349;0,0366496
1202,3992;0,0371965
1203,3634;0,0377237
1204,3276;0,038232
1205,2919;0,0387266
1206,2561;0,0392164
1207,2203;0,0397112
1208,1846;0,0402198
1209,1488;0,040748
1210,1130;0,0412994
1211,0773;0,0418765
1212,0415;0,0424823
1213,0057;0,0431213
1213,9700;0,0437976
1214,9342;0,0445115
1215,8984;0,0452568
1216,8627;0,0460187
1217,8269;0,0467767
1218,7911;0,0475127
1219,7554;0,0482152
1220,7196;0,0488811
1221,6838;0,0495128
1222,6481;0,050114
1223,6123;0,0506864
1224,5765;0,0512293
1225,5408;0,0517423
1226,5050;0,0522277
1227,4692;0,0526891
1228,4335;0,0531281
1229,3977;0,0535408
1230,3619;0,0539176
1231,3262;0,0542475
1232,2904;0,054524
1233,2546;0,0547497
1234,2189;0,0549348
1235,1831;0,0550931
1236,1473;0,0552361
1237,1116;0,05537
1238,0758;0,0554946
1239,0400;0,0556053
1240,0043;0,0556939
1240,9685;0,0557502
1241,9327;0,0557637
1242,8970;0,0557272
1243,8612;0,0556391
1244,8254;0,0555045
1245,7897;0,0553316
1246,7539;0,0551273
1247,7181;0,054894
1248,6824;0,0546305
1249,6466;0,0543348
1250,6108;0,0540097
1251,5751;0,053664
1252,5393;0,053312
1253,5035;0,0529694
1254,4678;0,0526484
1255,4320;0,0523536
1256,3962;0,0520794
1257,3605;0,0518108
1258,3247;0,0515271
1259,2889;0,0512088
1260,2532;0,0508438
1261,2174;0,0504321
1262,1816;0,0499845
1263,1459;0,0495172
1264,1101;0,0490456
1265,0743;0,0485794
1266,0386;0,0481197
1267,0028;0,0476586
1267,9670;0,0471807
1268,9313;0,046668
1269,8955;0,0461063
1270,8597;0,0454925
1271,8240;0,0448373
1272,7882;0,044163
1273,7524;0,0434965
1274,7167;0,0428616
1275,6809;0,0422734
1276,6451;0,041736
1277,6094;0,0412425
1278,5736;0,0407771
1279,5378;0,0403212
1280,5021;0,0398607
1281,4663;0,0393938
1282,4305;0,0389331
1283,3948;0,0384996
1284,3590;0,0381121
1285,3232;0,0377768
1286,2875;0,0374853
1287,2517;0,0372199
1288,2159;0,0369661
1289,1802;0,0367218
1290,1444;0,0364998
1291,1086;0,0363203
1292,0729;0,0362016
1293,0371;0,0361527
1294,0013;0,036173
1294,9656;0,0362552
1295,9298;0,0363909
1296,8940;0,0365729
1297,8583;0,0367971
1298,8225;0,0370612
1299,7867;0,0373656
1300,7510;0,0377129
1301,7152;0,0381105
1302,6794;0,0385638
1303,6437;0,0390725
1304,6079;0,0396287
1305,5721;0,0402189
1306,5364;0,0408303
1307,5006;0,0414589
1308,4648;0,0421112
1309,4291;0,0427955
1310,3933;0,0435089
1311,3575;0,0442289
1312,3218;0,0449166
1313,2860;0,0455321
1314,2502;0,0460501
1315,2145;0,0464619
1316,1787;0,0467634
1317,1429;0,0469414
1318,1072;0,0469733
1319,0714;0,0468456
1320,0356;0,0465755
1320,9999;0,046216
1321,9641;0,0458369
1322,9283;0,0454979
1323,8926;0,0452312
1324,8568;0,0450411
1325,8210;0,044913
1326,7853;0,0448265
1327,7495;0,0447617
1328,7137;0,0447016
1329,6780;0,04463
1330,6422;0,0445358
1331,6064;0,0444228
1332,5707;0,044317
1333,5349;0,0442656
1334,4991;0,0443156
1335,4634;0,0444817
1336,4276;0,044712
1337,3918;0,0448709
1338,3561;0,044773
1339,3203;0,0442881
1340,2845;0,043449
1341,2488;0,0424424
1342,2130;0,0414861
1343,1772;0,0407198
1344,1415;0,0401848
1345,1057;0,0398564
1346,0699;0,0396827
1347,0342;0,0396113
1347,9984;0,0396062
1348,9626;0,0396532
1349,9269;0,0397548
1350,8911;0,0399179
1351,8553;0,0401427
1352,8196;0,040417
1353,7838;0,0407203
