TITLE;
DATA TYPE;INFRARED SPECTRUM
ORIGIN;JASCO
OWNER;
DATE;25/02/28
TIME;16:25:31
SPECTROMETER/DATA SYSTEM;
LOCALE;9226
RESOLUTION;
DELTAX;0,964233
XUNITS;1/CM
YUNITS;ABSORBANCE
FIRSTX;  399,1927
LASTX; 4000,6047
NPOINTS;    3736
FIRSTY;     0,16680
MAXY;     0,21644
MINY;    -0,00595
XYDATA
399,1927;0,166801
400,1569;0,163839
401,1211;0,16063
402,0854;0,157715
403,0496;0,155253
404,0138;0,153239
404,9781;0,151668
405,9423;0,150582
406,9065;0,150007
407,8708;0,149861
408,8350;0,149912
409,7992;0,149865
410,7635;0,149526
411,7277;0,148953
412,6919;0,148464
413,6562;0,148473
414,6204;0,149298
415,5846;0,151062
416,5489;0,153609
417,5131;0,15635
418,4773;0,158276
419,4416;0,158648
420,4058;0,157815
421,3700;0,156803
422,3343;0,156314
423,2985;0,156454
424,2627;0,156959
425,2270;0,157465
426,1912;0,157708
427,1554;0,157636
428,1197;0,157376
429,0839;0,157099
430,0481;0,156919
431,0124;0,156869
431,9766;0,156931
432,9408;0,157088
433,9051;0,157317
434,8693;0,157563
435,8335;0,157733
436,7978;0,157744
437,7620;0,157594
438,7262;0,157391
439,6905;0,157297
440,6547;0,157418
441,6189;0,157707
442,5832;0,157936
443,5474;0,15781
444,5116;0,157168
445,4759;0,156112
446,4401;0,154951
447,4043;0,154011
448,3686;0,153474
449,3328;0,153321
450,2970;0,153381
451,2613;0,15345
452,2255;0,15341
453,1897;0,153263
454,1540;0,153088
455,1182;0,152955
456,0824;0,15286
457,0467;0,152719
458,0109;0,152415
458,9751;0,151885
459,9394;0,151165
460,9036;0,150367
461,8678;0,149628
462,8321;0,149087
463,7963;0,14886
464,7605;0,148996
465,7248;0,149424
466,6890;0,149944
467,6532;0,150308
468,6175;0,150332
469,5817;0,149962
470,5459;0,149295
471,5102;0,148532
472,4744;0,147885
473,4386;0,147466
474,4029;0,147234
475,3671;0,147061
476,3313;0,146843
477,2956;0,146574
478,2598;0,146354
479,2240;0,14634
480,1883;0,146645
481,1525;0,147258
482,1167;0,148012
483,0810;0,148651
484,0452;0,148961
485,0094;0,148899
485,9737;0,148625
486,9379;0,148386
487,9021;0,148376
488,8664;0,148657
489,8306;0,149167
490,7948;0,149781
491,7591;0,150368
492,7233;0,150832
493,6875;0,151124
494,6518;0,151238
495,6160;0,151207
496,5802;0,151105
497,5445;0,151025
498,5087;0,151056
499,4729;0,151244
500,4372;0,151572
501,4014;0,151966
502,3656;0,152329
503,3299;0,152589
504,2941;0,152722
505,2583;0,152744
506,2226;0,152694
507,1868;0,15263
508,1510;0,152626
509,1153;0,152763
510,0795;0,153102
511,0437;0,153662
512,0080;0,154416
512,9722;0,155303
513,9365;0,156251
514,9007;0,157181
515,8649;0,158007
516,8292;0,15864
517,7934;0,159014
518,7576;0,159133
519,7219;0,159091
520,6861;0,159037
521,6503;0,159096
522,6146;0,159321
523,5788;0,159668
524,5430;0,160017
525,5073;0,16023
526,4715;0,160223
527,4357;0,160016
528,4000;0,159706
529,3642;0,159394
530,3284;0,15913
531,2927;0,158912
532,2569;0,158717
533,2211;0,158533
534,1854;0,158371
535,1496;0,158245
536,1138;0,158156
537,0781;0,158082
538,0423;0,158002
539,0065;0,157918
539,9708;0,157859
540,9350;0,157865
541,8992;0,157953
542,8635;0,15811
543,8277;0,158305
544,7919;0,158518
545,7562;0,158753
546,7204;0,15903
547,6846;0,15935
548,6489;0,159687
549,6131;0,159994
550,5773;0,160239
551,5416;0,160436
552,5058;0,16064
553,4700;0,160913
554,4343;0,161285
555,3985;0,161728
556,3627;0,162155
557,3270;0,162455
558,2912;0,162528
559,2554;0,162319
560,2197;0,161826
561,1839;0,161109
562,1481;0,160268
563,1124;0,159417
564,0766;0,158642
565,0408;0,157975
566,0051;0,157393
566,9693;0,156848
567,9335;0,156309
568,8978;0,155795
569,8620;0,155376
570,8262;0,155127
571,7905;0,155085
572,7547;0,155227
573,7189;0,155472
574,6832;0,155721
575,6474;0,155896
576,6116;0,155969
577,5759;0,155961
578,5401;0,155918
579,5043;0,155872
580,4686;0,155822
581,4328;0,155739
582,3970;0,155581
583,3613;0,155329
584,3255;0,155006
585,2897;0,154683
586,2540;0,154452
587,2182;0,154402
588,1824;0,154572
589,1467;0,154936
590,1109;0,155396
591,0751;0,155809
592,0394;0,156041
593,0036;0,156014
593,9678;0,155739
594,9321;0,155287
595,8963;0,154747
596,8605;0,15419
597,8248;0,153657
598,7890;0,153169
599,7532;0,152736
600,7175;0,152365
601,6817;0,152055
602,6459;0,151795
603,6102;0,151564
604,5744;0,151344
605,5386;0,151119
606,5029;0,15086
607,4671;0,150525
608,4313;0,150063
609,3956;0,149452
610,3598;0,148748
611,3240;0,148099
612,2883;0,147696
613,2525;0,147679
614,2167;0,148029
615,1810;0,148527
616,1452;0,148807
617,1094;0,148521
618,0737;0,147516
619,0379;0,145924
620,0021;0,144071
620,9664;0,142298
621,9306;0,140817
622,8948;0,139672
623,8591;0,138793
624,8233;0,137997
625,7875;0,137354
626,7518;0,136828
627,7160;0,136408
628,6802;0,13606
629,6445;0,135738
630,6087;0,135389
631,5729;0,134981
632,5372;0,134513
633,5014;0,134015
634,4656;0,133539
635,4299;0,133138
636,3941;0,13285
637,3583;0,132674
638,3226;0,132577
639,2868;0,132501
640,2510;0,132395
641,2153;0,132239
642,1795;0,132052
643,1437;0,131884
644,1080;0,131779
645,0722;0,131748
646,0364;0,131759
647,0007;0,131754
647,9649;0,131675
648,9291;0,131487
649,8934;0,131193
650,8576;0,130829
651,8218;0,130454
652,7861;0,130141
653,7503;0,129957
654,7145;0,129939
655,6788;0,130064
656,6430;0,13026
657,6072;0,130447
658,5715;0,130584
659,5357;0,130666
660,4999;0,130659
661,4642;0,13044
662,4284;0,129783
663,3926;0,128448
664,3569;0,126384
665,3211;0,124014
666,2853;0,122377
667,2496;0,122585
668,2138;0,124399
669,1780;0,12612
670,1423;0,126858
671,1065;0,126858
672,0707;0,126269
673,0350;0,125084
673,9992;0,123474
674,9634;0,121766
675,9277;0,120233
676,8919;0,118946
677,8561;0,117804
678,8204;0,116676
679,7846;0,115513
680,7488;0,114346
681,7131;0,113241
682,6773;0,112241
683,6415;0,111355
684,6058;0,110574
685,5700;0,109885
686,5342;0,109271
687,4985;0,10871
688,4627;0,108187
689,4269;0,107669
690,3912;0,107148
691,3554;0,106631
692,3196;0,106128
693,2839;0,105638
694,2481;0,105146
695,2123;0,104633
696,1766;0,104086
697,1408;0,103515
698,1050;0,102942
699,0693;0,102397
700,0335;0,101903
700,9977;0,101462
701,9620;0,101056
702,9262;0,100651
703,8904;0,100189
704,8547;0,0996657
705,8189;0,0990954
706,7831;0,0985039
707,7474;0,0979114
708,7116;0,0973225
709,6758;0,0967259
710,6401;0,0961036
711,6043;0,0954435
712,5685;0,0947536
713,5328;0,094072
714,4970;0,0934639
715,4612;0,0914112
716,4255;0,0914558
717,3897;0,091753
718,3539;0,092068
719,3182;0,0920721
720,2824;0,0915017
721,2466;0,0903138
722,2109;0,0887172
723,1751;0,0870492
724,1393;0,0855982
725,1036;0,0844933
726,0678;0,0837022
727,0320;0,0831046
727,9963;0,0825795
728,9605;0,0820575
729,9247;0,08152
730,8890;0,0809679
731,8532;0,0803965
732,8174;0,0797973
733,7817;0,0791757
734,7459;0,0785621
735,7101;0,078003
736,6744;0,0775375
737,6386;0,0771747
738,6028;0,0768872
739,5671;0,0766226
740,5313;0,076326
741,4955;0,0759621
742,4598;0,0755275
743,4240;0,0750473
744,3882;0,0745585
745,3525;0,0740878
746,3167;0,0736378
747,2809;0,0731889
748,2452;0,0727165
749,2094;0,0722111
750,1736;0,0716873
751,1379;0,0711736
752,1021;0,0706922
753,0663;0,0702439
754,0306;0,0698092
754,9948;0,069365
755,9590;0,0689024
756,9233;0,068433
757,8875;0,0679795
758,8517;0,0675589
759,8160;0,0671724
760,7802;0,0668079
761,7444;0,0664514
762,7087;0,0660973
763,6729;0,0657502
764,6371;0,0654184
765,6014;0,0651064
766,5656;0,0648111
767,5298;0,0645245
768,4941;0,0642385
769,4583;0,0639477
770,4225;0,0636495
771,3868;0,0633423
772,3510;0,0630266
773,3152;0,0627063
774,2795;0,0623896
775,2437;0,0620876
776,2079;0,0618095
777,1722;0,0615574
778,1364;0,0613246
779,1006;0,0610978
780,0649;0,0608618
781,0291;0,060605
781,9933;0,0603225
782,9576;0,060017
783,9218;0,0596966
784,8860;0,0593728
785,8503;0,0590578
786,8145;0,0587631
787,7787;0,0584979
788,7430;0,0582682
789,7072;0,0580752
790,6714;0,0579148
791,6357;0,0577777
792,5999;0,0576507
793,5641;0,0575195
794,5284;0,0573713
795,4926;0,0571987
796,4568;0,0570026
797,4211;0,0567942
798,3853;0,0565937
799,3495;0,0564247
800,3138;0,0563046
801,2780;0,0562363
802,2422;0,0562035
803,2065;0,0561757
804,1707;0,0561192
805,1349;0,0560098
806,0992;0,0558407
807,0634;0,0556213
808,0276;0,0553709
808,9919;0,05511
809,9561;0,0548567
810,9203;0,0546254
811,8846;0,0544278
812,8488;0,0542719
813,8130;0,0541587
814,7773;0,0540799
815,7415;0,0540198
816,7057;0,0539607
817,6700;0,0538889
818,6342;0,0537985
819,5984;0,0536904
820,5627;0,0535698
821,5269;0,0534442
822,4911;0,0533232
823,4554;0,0532183
824,4196;0,0531407
825,3839;0,0530956
826,3481;0,053079
827,3123;0,0530773
828,2766;0,0530737
829,2408;0,0530554
830,2050;0,0530171
831,1693;0,0529584
832,1335;0,0528775
833,0977;0,0527668
834,0620;0,0526157
835,0262;0,0524179
835,9904;0,0521783
836,9547;0,0519133
837,9189;0,0516437
838,8831;0,0513854
839,8474;0,0511442
840,8116;0,0509179
841,7758;0,0507024
842,7401;0,0504969
843,7043;0,0503046
844,6685;0,0501295
845,6328;0,0499737
846,5970;0,0498374
847,5612;0,0497205
848,5255;0,0496229
849,4897;0,0495421
850,4539;0,0494696
851,4182;0,0493927
852,3824;0,0492999
853,3466;0,0491902
854,3109;0,0490756
855,2751;0,0489771
856,2393;0,0489131
857,2036;0,0488904
858,1678;0,0489019
859,1320;0,0489336
860,0963;0,0489725
861,0605;0,0490123
862,0247;0,0490514
862,9890;0,0490903
863,9532;0,0491293
864,9174;0,0491709
865,8817;0,0492228
866,8459;0,0492965
867,8101;0,0494014
868,7744;0,0495385
869,7386;0,0496971
870,7028;0,0498582
871,6671;0,0500013
872,6313;0,0501119
873,5955;0,0501834
874,5598;0,0502174
875,5240;0,0502215
876,4882;0,0502075
877,4525;0,0501906
878,4167;0,0501881
879,3809;0,0502169
880,3452;0,0502921
881,3094;0,0504253
882,2736;0,0506244
883,2379;0,0508937
884,2021;0,0512337
885,1663;0,0516424
886,1306;0,0521177
887,0948;0,0526596
888,0590;0,0532703
889,0233;0,0539511
889,9875;0,0546967
890,9517;0,0554904
891,9160;0,0563034
892,8802;0,0570978
893,8444;0,0578324
894,8087;0,0584669
895,7729;0,0589651
896,7371;0,059297
897,7014;0,0594425
898,6656;0,059396
899,6298;0,0591698
900,5941;0,0587927
901,5583;0,0583044
902,5225;0,0577458
903,4868;0,0571519
904,4510;0,0565482
905,4152;0,0559533
906,3795;0,0553844
907,3437;0,0548622
908,3079;0,0544113
909,2722;0,0540554
910,2364;0,05381
911,2007;0,0536758
912,1649;0,0536376
913,1292;0,0536703
914,0934;0,053748
915,0576;0,0538535
916,0219;0,0539813
916,9861;0,0541344
917,9503;0,0543168
918,9146;0,0545264
919,8788;0,0547525
920,8430;0,0549786
921,8073;0,0551884
922,7715;0,0553719
923,7357;0,055528
924,7000;0,0556635
925,6642;0,0557883
926,6284;0,0559099
927,5927;0,0560295
928,5569;0,0561418
929,5211;0,0562375
930,4854;0,0563094
931,4496;0,0563564
932,4138;0,056385
933,3781;0,0564079
934,3423;0,0564395
935,3065;0,0564921
936,2708;0,0565743
937,2350;0,056691
938,1992;0,0568451
939,1635;0,0570391
940,1277;0,0572772
941,0919;0,0575645
942,0562;0,0579067
943,0204;0,0583069
943,9846;0,0587637
944,9489;0,0592705
945,9131;0,0598174
946,8773;0,060397
947,8416;0,0610086
948,8058;0,0616608
949,7700;0,062368
950,7343;0,0631444
951,6985;0,0639988
952,6627;0,0649328
953,6270;0,0659444
954,5912;0,0670323
955,5554;0,0681981
956,5197;0,0694442
957,4839;0,070769
958,4481;0,0721627
959,4124;0,0736075
960,3766;0,0750818
961,3408;0,0765665
962,3051;0,0780515
963,2693;0,0795375
964,2335;0,0810354
965,1978;0,0825623
966,1620;0,0841356
967,1262;0,0857684
968,0905;0,0874676
969,0547;0,0892355
970,0189;0,0910766
970,9832;0,0930051
971,9474;0,0950498
972,9116;0,0972519
973,8759;0,0996571
974,8401;0,102304
975,8043;0,105213
976,7686;0,108388
977,7328;0,111811
978,6970;0,115446
979,6613;0,119237
980,6255;0,123104
981,5897;0,126941
982,5540;0,13063
983,5182;0,134054
984,4824;0,137127
985,4467;0,139809
986,4109;0,142109
987,3751;0,144071
988,3394;0,145754
989,3036;0,14721
990,2678;0,14848
991,2321;0,149592
992,1963;0,150568
993,1605;0,151434
994,1248;0,152218
995,0890;0,152948
996,0532;0,153651
997,0175;0,154347
997,9817;0,155047
998,9459;0,155759
999,9102;0,156483
1000,8744;0,157217
1001,8386;0,157962
1002,8029;0,158727
1003,7671;0,159537
1004,7313;0,160435
1005,6956;0,161477
1006,6598;0,162726
1007,6240;0,164242
1008,5883;0,166065
1009,5525;0,168207
1010,5167;0,170647
1011,4810;0,173328
1012,4452;0,176169
1013,4094;0,179074
1014,3737;0,181951
1015,3379;0,184726
1016,3021;0,18735
1017,2664;0,1898
1018,2306;0,192081
1019,1948;0,194214
1020,1591;0,19623
1021,1233;0,198165
1022,0875;0,200058
1023,0518;0,201946
1024,0160;0,203858
1024,9802;0,205801
1025,9445;0,207761
1026,9087;0,209694
1027,8729;0,211537
1028,8372;0,213212
1029,8014;0,214632
1030,7656;0,215704
1031,7299;0,216335
1032,6941;0,21644
1033,6583;0,215967
1034,6226;0,214921
1035,5868;0,213378
1036,5510;0,211481
1037,5153;0,209413
1038,4795;0,207367
1039,4437;0,205509
1040,4080;0,203961
1041,3722;0,20279
1042,3364;0,202004
1043,3007;0,201557
1044,2649;0,20136
1045,2291;0,201295
1046,1934;0,201242
1047,1576;0,201099
1048,1218;0,200792
1049,0861;0,200276
1050,0503;0,199526
1051,0145;0,198527
1051,9788;0,197272
1052,9430;0,19577
1053,9072;0,19404
1054,8715;0,19211
1055,8357;0,189995
1056,7999;0,187679
1057,7642;0,185118
1058,7284;0,182252
1059,6926;0,179041
1060,6569;0,175494
1061,6211;0,171679
1062,5853;0,16772
1063,5496;0,163759
1064,5138;0,159928
1065,4780;0,156327
1066,4423;0,153012
1067,4065;0,150001
1068,3707;0,14728
1069,3350;0,144818
1070,2992;0,142563
1071,2634;0,14046
1072,2277;0,138447
1073,1919;0,136472
1074,1561;0,134489
1075,1204;0,132474
1076,0846;0,130417
1077,0488;0,128332
1078,0131;0,126249
1078,9773;0,12421
1079,9415;0,122264
1080,9058;0,120453
1081,8700;0,118813
1082,8342;0,117358
1083,7985;0,116086
1084,7627;0,114982
1085,7269;0,114024
1086,6912;0,11319
1087,6554;0,112468
1088,6196;0,111848
1089,5839;0,11133
1090,5481;0,110914
1091,5123;0,110604
1092,4766;0,110405
1093,4408;0,110324
1094,4050;0,110363
1095,3693;0,110516
1096,3335;0,110769
1097,2977;0,111105
1098,2620;0,111508
1099,2262;0,111964
1100,1904;0,112457
1101,1547;0,112962
1102,1189;0,113439
1103,0831;0,113843
1104,0474;0,114132
1105,0116;0,114281
1105,9758;0,114291
1106,9401;0,114173
1107,9043;0,11394
1108,8685;0,113587
1109,8328;0,11309
1110,7970;0,112412
1111,7612;0,11152
1112,7255;0,110409
1113,6897;0,109108
1114,6539;0,107682
1115,6182;0,106221
1116,5824;0,104811
1117,5466;0,103515
1118,5109;0,10236
1119,4751;0,101326
1120,4393;0,100356
1121,4036;0,0993726
1122,3678;0,0982951
1123,3320;0,097057
1124,2963;0,0956192
1125,2605;0,0939743
1126,2247;0,0921426
1127,1890;0,0901628
1128,1532;0,0880809
1129,1174;0,0859408
1130,0817;0,0837812
1131,0459;0,0816351
1132,0101;0,0795333
1132,9744;0,077507
1133,9386;0,0755887
1134,9028;0,0738116
1135,8671;0,0722082
1136,8313;0,0708064
1137,7955;0,0696263
1138,7598;0,0686767
1139,7240;0,0679535
1140,6882;0,0674403
1141,6525;0,0671126
1142,6167;0,0669421
1143,5809;0,0669025
1144,5452;0,0669729
1145,5094;0,0671396
1146,4736;0,0673954
1147,4379;0,0677372
1148,4021;0,0681624
1149,3663;0,0686666
1150,3306;0,0692415
1151,2948;0,069875
1152,2590;0,0705514
1153,2233;0,0712504
1154,1875;0,0719448
1155,1517;0,0725977
1156,1160;0,0731607
1157,0802;0,0735745
1158,0444;0,0737731
1159,0087;0,0736884
1159,9729;0,0732568
1160,9371;0,0724263
1161,9014;0,071166
1162,8656;0,0694751
1163,8298;0,0673895
1164,7941;0,0649819
1165,7583;0,0623526
1166,7225;0,0596154
1167,6868;0,0568805
1168,6510;0,0542411
1169,6152;0,0517657
1170,5795;0,0494963
1171,5437;0,0474518
1172,5079;0,0456339
1173,4722;0,0440333
1174,4364;0,0426344
1175,4006;0,041419
1176,3649;0,0403677
1177,3291;0,0394616
1178,2933;0,0386834
1179,2576;0,0380198
1180,2218;0,0374618
1181,1860;0,037004
1182,1503;0,036642
1183,1145;0,0363694
1184,0787;0,0361767
1185,0430;0,0360526
1186,0072;0,0359868
1186,9714;0,0359739
1187,9357;0,0360146
1188,8999;0,0361146
1189,8641;0,0362819
1190,8284;0,0365231
1191,7926;0,0368419
1192,7568;0,037239
1193,7211;0,0377124
1194,6853;0,038258
1195,6495;0,0388682
1196,6138;0,039531
1197,5780;0,0402294
1198,5422;0,0409439
1199,5065;0,0414369
1200,4707;0,0421616
1201,4349;0,0428683
1202,3992;0,043556
1203,3634;0,0442254
1204,3276;0,0448764
1205,2919;0,0455083
1206,2561;0,0461229
1207,2203;0,0467281
1208,1846;0,0473382
1209,1488;0,0479708
1210,1130;0,0486411
1211,0773;0,0493581
1212,0415;0,0501235
1213,0057;0,0509336
1213,9700;0,0517828
1214,9342;0,0526647
1215,8984;0,0535723
1216,8627;0,0544953
1217,8269;0,0554195
1218,7911;0,0563309
1219,7554;0,0572174
1220,7196;0,0580697
1221,6838;0,0588819
1222,6481;0,0596497
1223,6123;0,0603705
1224,5765;0,0610441
1225,5408;0,0616737
1226,5050;0,0622661
1227,4692;0,0628286
1228,4335;0,0633658
1229,3977;0,063876
1230,3619;0,0643511
1231,3262;0,0647795
1232,2904;0,0651507
1233,2546;0,0654593
1234,2189;0,0657077
1235,1831;0,0659045
1236,1473;0,0660634
1237,1116;0,0661986
1238,0758;0,0663211
1239,0400;0,0664352
1240,0043;0,0665362
1240,9685;0,0666113
1241,9327;0,0666438
1242,8970;0,0666184
1243,8612;0,0665259
1244,8254;0,0663649
1245,7897;0,0661414
1246,7539;0,0658651
1247,7181;0,0655474
1248,6824;0,0651991
1249,6466;0,06483
1250,6108;0,064448
1251,5751;0,0640598
1252,5393;0,0636711
1253,5035;0,0632879
1254,4678;0,0629157
1255,4320;0,0625558
1256,3962;0,0622022
1257,3605;0,06184
1258,3247;0,0614484
1259,2889;0,0610086
1260,2532;0,0605119
1261,2174;0,0599637
1262,1816;0,0593791
1263,1459;0,0587756
1264,1101;0,0581654
1265,0743;0,057552
1266,0386;0,0569313
1267,0028;0,056294
1267,9670;0,0556279
1268,9313;0,0549211
1269,8955;0,0541657
1270,8597;0,0533615
1271,8240;0,0525188
1272,7882;0,0516572
1273,7524;0,0508018
1274,7167;0,0499779
1275,6809;0,0492059
1276,6451;0,0484963
1277,6094;0,047847
1278,5736;0,0472418
1279,5378;0,0466561
1280,5021;0,0460676
1281,4663;0,0454681
1282,4305;0,0448684
1283,3948;0,0442935
1284,3590;0,043769
1285,3232;0,0433081
1286,2875;0,0429066
1287,2517;0,0425481
1288,2159;0,0422166
1289,1802;0,0419084
1290,1444;0,041635
1291,1086;0,0414168
1292,0729;0,0412729
1293,0371;0,0412129
1294,0013;0,041235
1294,9656;0,041329
1295,9298;0,0414816
1296,8940;0,0416818
1297,8583;0,0419241
1298,8225;0,0422089
1299,7867;0,0425415
1300,7510;0,0429296
1301,7152;0,043383
1302,6794;0,0439056
1303,6437;0,0444932
1304,6079;0,045135
1305,5721;0,0458164
1306,5364;0,0465251
1307,5006;0,0472566
1308,4648;0,048014
1309,4291;0,0487998
1310,3933;0,0496064
1311,3575;0,0504106
1312,3218;0,0511778
1313,2860;0,0518731
1314,2502;0,0524715
1315,2145;0,0529565
1316,1787;0,0533095
1317,1429;0,0535037
1318,1072;0,0535117
1319,0714;0,0533272
1320,0356;0,0529838
1320,9999;0,0525507
1321,9641;0,0521072
1322,9283;0,0517142
1323,8926;0,0514017
1324,8568;0,051172
1325,8210;0,05101
1326,7853;0,0508944
1327,7495;0,0508018
1328,7137;0,0507101
1329,6780;0,0505999
1330,6422;0,0504622
1331,6064;0,0503082
1332,5707;0,0501707
1333,5349;0,0500968
1334,4991;0,0501231
1335,4634;0,0502463
1336,4276;0,0503967
1337,3918;0,0504314
1338,3561;0,0501774
1339,3203;0,0495354
1340,2845;0,0485716
1341,2488;0,0474896
1342,2130;0,046501
1343,1772;0,0457271
1344,1415;0,04519
1345,1057;0,0448531
1346,0699;0,0446603
1347,0342;0,0445626
1347,9984;0,0445331
1348,9626;0,0445691
1349,9269;0,0446813
1350,8911;0,0448786
1351,8553;0,0451553
1352,8196;0,045491
1353,7838;0,0458607
1354,7480;0,0462511
1355,7123;0,0466731
1356,6765;0,0471593
