TITLE;
DATA TYPE;INFRARED SPECTRUM
ORIGIN;JASCO
OWNER;
DATE;25/03/17
TIME;15:00:01
SPECTROMETER/DATA SYSTEM;
LOCALE;9226
RESOLUTION;
DELTAX;0,964233
XUNITS;1/CM
YUNITS;ABSORBANCE
FIRSTX;  399,1927
LASTX; 4000,6047
NPOINTS;    3736
FIRSTY;     0,08651
MAXY;     0,10943
MINY;     0,00918
XYDATA
399,1927;0,0865088
400,1569;0,087129
401,1211;0,0871697
402,0854;0,0866897
403,0496;0,0858671
404,0138;0,0849595
404,9781;0,0842757
405,9423;0,0840877
406,9065;0,0845026
407,8708;0,0853948
408,8350;0,0864726
409,7992;0,0874263
410,7635;0,0880536
411,7277;0,0883049
412,6919;0,0882381
413,6562;0,0879312
414,6204;0,0874296
415,5846;0,08677
416,5489;0,0860675
417,5131;0,0856086
418,4773;0,08579
419,4416;0,0867478
420,4058;0,0881081
421,3700;0,0893744
422,3343;0,0903511
423,2985;0,0911067
424,2627;0,0917701
425,2270;0,0923936
426,1912;0,0929196
427,1554;0,0932425
428,1197;0,0933095
429,0839;0,0931783
430,0481;0,0929931
431,0124;0,0929046
431,9766;0,0929876
432,9408;0,093212
433,9051;0,0934883
434,8693;0,0937521
435,8335;0,0940146
436,7978;0,0943373
437,7620;0,0947582
438,7262;0,09524
439,6905;0,0956811
440,6547;0,0959666
441,6189;0,096022
442,5832;0,0958402
443,5474;0,0954697
444,5116;0,0949723
445,4759;0,0943903
446,4401;0,0937529
447,4043;0,093111
448,3686;0,0925588
449,3328;0,0922177
450,2970;0,0921843
451,2613;0,0924691
452,2255;0,0929718
453,1897;0,093521
454,1540;0,0939585
455,1182;0,0942164
456,0824;0,0943448
457,0467;0,0944676
458,0109;0,0946678
458,9751;0,0948783
459,9394;0,0949047
460,9036;0,0945777
461,8678;0,0938827
462,8321;0,0929798
463,7963;0,0921372
464,7605;0,0916126
465,7248;0,0915252
466,6890;0,0917981
467,6532;0,0922284
468,6175;0,0926313
469,5817;0,0929382
470,5459;0,0931868
471,5102;0,0934277
472,4744;0,0936303
473,4386;0,0936785
474,4029;0,0934688
475,3671;0,0930101
476,3313;0,0924323
477,2956;0,0919196
478,2598;0,0916275
479,2240;0,0916213
480,1883;0,091857
481,1525;0,0922098
482,1167;0,0925348
483,0810;0,0927292
484,0452;0,0927724
485,0094;0,0927255
485,9737;0,0926879
486,9379;0,0927366
487,9021;0,0928875
488,8664;0,0930943
489,8306;0,0932742
490,7948;0,0933462
491,7591;0,0932741
492,7233;0,0930936
493,6875;0,0929016
494,6518;0,092807
495,6160;0,0928722
496,5802;0,0930815
497,5445;0,0933492
498,5087;0,0935603
499,4729;0,0936243
500,4372;0,0935237
501,4014;0,0933329
502,3656;0,0931846
503,3299;0,0931921
504,2941;0,0933813
505,2583;0,093683
506,2226;0,0939806
507,1868;0,0941748
508,1510;0,0942272
509,1153;0,0941694
510,0795;0,0940778
511,0437;0,0940332
512,0080;0,0940923
512,9722;0,0942787
513,9365;0,0945842
514,9007;0,0949712
515,8649;0,0953721
516,8292;0,0957002
517,7934;0,0958821
518,7576;0,0959018
519,7219;0,0958151
520,6861;0,0957147
521,6503;0,095674
522,6146;0,0957121
523,5788;0,0957935
524,5430;0,0958506
525,5073;0,0958228
526,4715;0,0956948
527,4357;0,095507
528,4000;0,0953289
529,3642;0,0952169
530,3284;0,0951905
531,2927;0,0952321
532,2569;0,0952992
533,2211;0,0953433
534,1854;0,0953273
535,1496;0,0952394
536,1138;0,095093
537,0781;0,0949158
538,0423;0,0947313
539,0065;0,094547
539,9708;0,0943572
540,9350;0,0941573
541,8992;0,0939613
542,8635;0,0938063
543,8277;0,0937407
544,7919;0,0938005
545,7562;0,0939871
546,7204;0,0942615
547,6846;0,0945586
548,6489;0,0948122
549,6131;0,094979
550,5773;0,0950505
551,5416;0,0950528
552,5058;0,0950366
553,4700;0,0950574
554,4343;0,095151
555,3985;0,0953096
556,3627;0,0954746
557,3270;0,0955548
558,2912;0,0954642
559,2554;0,0951614
560,2197;0,0946687
561,1839;0,0940619
562,1481;0,0934382
563,1124;0,092878
564,0766;0,0924193
565,0408;0,0920539
566,0051;0,0917425
566,9693;0,0914392
567,9335;0,0911156
568,8978;0,0907745
569,8620;0,0904451
570,8262;0,0901621
571,7905;0,0899425
572,7547;0,0897755
573,7189;0,0896306
574,6832;0,0894795
575,6474;0,0893167
576,6116;0,0891654
577,5759;0,0890604
578,5401;0,0890207
579,5043;0,089032
580,4686;0,089053
581,4328;0,0890402
582,3970;0,0889753
583,3613;0,0888754
584,3255;0,0887789
585,2897;0,0887196
586,2540;0,0887066
587,2182;0,088724
588,1824;0,0887477
589,1467;0,0887631
590,1109;0,0887715
591,0751;0,0887822
592,0394;0,0887956
593,0036;0,0887927
593,9678;0,0887407
594,9321;0,0886107
595,8963;0,0883956
596,8605;0,0881165
597,8248;0,0878144
598,7890;0,0875318
599,7532;0,0872919
600,7175;0,0870905
601,6817;0,086906
602,6459;0,0867213
603,6102;0,0865395
604,5744;0,0863808
605,5386;0,0862615
606,5029;0,0861716
607,4671;0,0860704
608,4313;0,0859046
609,3956;0,0856408
610,3598;0,0852879
611,3240;0,084893
612,2883;0,0845128
613,2525;0,0841794
614,2167;0,0838832
615,1810;0,0835805
616,1452;0,0832197
617,1094;0,0827715
618,0737;0,0822449
619,0379;0,0816795
620,0021;0,0811206
620,9664;0,0805979
621,9306;0,0801188
622,8948;0,0796739
623,8591;0,0792465
624,8233;0,078816
625,7875;0,0783854
626,7518;0,0779586
627,7160;0,0775472
628,6802;0,0771632
629,6445;0,0768127
630,6087;0,0764931
631,5729;0,0761965
632,5372;0,0759161
633,5014;0,0756515
634,4656;0,075406
635,4299;0,0751797
636,3941;0,0749631
637,3583;0,0747382
638,3226;0,0744887
639,2868;0,0742114
640,2510;0,0739203
641,2153;0,0736402
642,1795;0,0733939
643,1437;0,073191
644,1080;0,0730261
645,0722;0,0728856
646,0364;0,0727549
647,0007;0,0726236
647,9649;0,0724834
648,9291;0,0723278
649,8934;0,0721542
650,8576;0,0719688
651,8218;0,07179
652,7861;0,0716453
653,7503;0,0715613
654,7145;0,0715503
655,6788;0,0716002
656,6430;0,0716753
657,6072;0,0717302
658,5715;0,0717284
659,5357;0,0716563
660,4999;0,0715252
661,4642;0,0713585
662,4284;0,0711662
663,3926;0,0709283
664,3569;0,0706024
665,3211;0,0701476
666,2853;0,0695539
667,2496;0,0688742
668,2138;0,0682549
669,1780;0,0678793
670,1423;0,0677777
671,1065;0,0677776
672,0707;0,0676785
673,0350;0,0673676
673,9992;0,0668276
674,9634;0,0661143
675,9277;0,065326
676,8919;0,0645586
677,8561;0,063866
678,8204;0,0632596
679,7846;0,0627372
680,7488;0,0623024
681,7131;0,061955
682,6773;0,0616699
683,6415;0,0613967
684,6058;0,0610834
685,5700;0,0607085
686,5342;0,0602953
687,4985;0,0599009
688,4627;0,0595871
689,4269;0,0593887
690,3912;0,0593013
691,3554;0,0592864
692,3196;0,0592878
693,2839;0,0592506
694,2481;0,0591365
695,2123;0,0589334
696,1766;0,0586583
697,1408;0,0583506
698,1050;0,0580584
699,0693;0,057821
700,0335;0,0576557
700,9977;0,0575534
701,9620;0,0574835
702,9262;0,0574056
703,8904;0,0572817
704,8547;0,0570928
705,8189;0,0568421
706,7831;0,0565504
707,7474;0,0562449
708,7116;0,0559456
709,6758;0,0556569
710,6401;0,0553698
711,6043;0,0550721
712,5685;0,0547601
713,5328;0,0544458
714,4970;0,0541515
715,4612;0,0537922
716,4255;0,0536105
717,3897;0,0534739
718,3539;0,0533472
719,3182;0,0531848
720,2824;0,0529472
721,2466;0,0526156
722,2109;0,0521969
723,1751;0,0517183
724,1393;0,0512192
725,1036;0,0507448
726,0678;0,0503385
727,0320;0,0500292
727,9963;0,0498166
728,9605;0,0496659
729,9247;0,0495197
730,8890;0,0493237
731,8532;0,0490518
732,8174;0,0487154
733,7817;0,0483542
734,7459;0,048014
735,7101;0,0477264
736,6744;0,0474985
737,6386;0,0473171
738,6028;0,0471593
739,5671;0,0470028
740,5313;0,0468306
741,4955;0,0466315
742,4598;0,0463993
743,4240;0,0461336
744,3882;0,0458415
745,3525;0,0455397
746,3167;0,0452518
747,2809;0,0450007
748,2452;0,044799
749,2094;0,0446415
750,1736;0,044505
751,1379;0,0443585
752,1021;0,0441776
753,0663;0,0439567
754,0306;0,0437104
754,9948;0,0434639
755,9590;0,0432383
756,9233;0,0430405
757,8875;0,0428624
758,8517;0,04269
759,8160;0,0425136
760,7802;0,0423328
761,7444;0,0421535
762,7087;0,0419822
763,6729;0,0418208
764,6371;0,0416677
765,6014;0,0415205
766,5656;0,0413787
767,5298;0,0412426
768,4941;0,0411103
769,4583;0,0409757
770,4225;0,0408312
771,3868;0,040672
772,3510;0,0405007
773,3152;0,0403279
774,2795;0,0401688
775,2437;0,0400377
776,2079;0,0399428
777,1722;0,0398819
778,1364;0,0398411
779,1006;0,0397967
780,0649;0,0397215
781,0291;0,0395936
781,9933;0,039406
782,9576;0,039171
783,9218;0,0389162
784,8860;0,0386748
785,8503;0,0384729
786,8145;0,0383214
787,7787;0,038215
788,7430;0,0381375
789,7072;0,0380695
790,6714;0,0379953
791,6357;0,0379073
792,5999;0,0378079
793,5641;0,0377066
794,5284;0,0376141
795,4926;0,0375345
796,4568;0,0374607
797,4211;0,0373768
798,3853;0,0372692
799,3495;0,0371381
800,3138;0,0370018
801,2780;0,0368888
802,2422;0,0368206
803,2065;0,0367977
804,1707;0,0367975
805,1349;0,0367879
806,0992;0,0367458
807,0634;0,0366701
808,0276;0,0365796
808,9919;0,0364993
809,9561;0,0364457
810,9203;0,0364187
811,8846;0,0364054
812,8488;0,0363887
813,8130;0,0363563
814,7773;0,0363028
815,7415;0,0362288
816,7057;0,0361378
817,6700;0,0360347
818,6342;0,0359257
819,5984;0,0358179
820,5627;0,0357184
821,5269;0,0356333
822,4911;0,0355674
823,4554;0,0355238
824,4196;0,0355037
825,3839;0,0355042
826,3481;0,0355171
827,3123;0,0355293
828,2766;0,0355263
829,2408;0,0354972
830,2050;0,035439
831,1693;0,0353568
832,1335;0,0352613
833,0977;0,0351637
834,0620;0,0350714
835,0262;0,0349855
835,9904;0,0349003
836,9547;0,0348066
837,9189;0,0346953
838,8831;0,0345631
839,8474;0,034416
840,8116;0,0342691
841,7758;0,0341418
842,7401;0,0340507
843,7043;0,0340032
844,6685;0,0339952
845,6328;0,034015
846,5970;0,0340492
847,5612;0,0340872
848,5255;0,0341224
849,4897;0,0341508
850,4539;0,0341684
851,4182;0,0341719
852,3824;0,0341608
853,3466;0,0341392
854,3109;0,0341157
855,2751;0,0340992
856,2393;0,0340947
857,2036;0,0340998
858,1678;0,0341053
859,1320;0,0340997
860,0963;0,0340751
861,0605;0,0340328
862,0247;0,033984
862,9890;0,033946
863,9532;0,0339347
864,9174;0,033957
865,8817;0,0340077
866,8459;0,0340725
867,8101;0,0341366
868,7744;0,034193
869,7386;0,034245
870,7028;0,0343022
871,6671;0,0343705
872,6313;0,0344456
873,5955;0,0345126
874,5598;0,0345546
875,5240;0,0345635
876,4882;0,0345458
877,4525;0,0345209
878,4167;0,0345112
879,3809;0,0345323
880,3452;0,0345888
881,3094;0,0346764
882,2736;0,034789
883,2379;0,0349239
884,2021;0,0350837
885,1663;0,0352744
886,1306;0,0355027
887,0948;0,0357734
888,0590;0,0360891
889,0233;0,0364487
889,9875;0,0368466
890,9517;0,0372712
891,9160;0,0377047
892,8802;0,038125
893,8444;0,038508
894,8087;0,0388301
895,7729;0,0390708
896,7371;0,039214
897,7014;0,0392513
898,6656;0,0391835
899,6298;0,0390216
900,5941;0,0387845
901,5583;0,0384953
902,5225;0,0381763
903,4868;0,0378474
904,4510;0,0375252
905,4152;0,0372247
906,3795;0,036959
907,3437;0,0367379
908,3079;0,0365659
909,2722;0,0364408
910,2364;0,0363549
911,2007;0,0362974
912,1649;0,0362589
913,1292;0,0362344
914,0934;0,0362259
915,0576;0,0362419
916,0219;0,0362935
916,9861;0,0363874
917,9503;0,0365192
918,9146;0,0366715
919,8788;0,0368194
920,8430;0,0369423
921,8073;0,0370357
922,7715;0,0371147
923,7357;0,0372049
924,7000;0,0373266
925,6642;0,0374809
926,6284;0,0376489
927,5927;0,0378032
928,5569;0,0379255
929,5211;0,0380172
930,4854;0,0380971
931,4496;0,0381884
932,4138;0,0383046
933,3781;0,0384441
934,3423;0,0385954
935,3065;0,0387477
936,2708;0,0388983
937,2350;0,0390517
938,1992;0,0392146
939,1635;0,0393906
940,1277;0,0395797
941,0919;0,0397823
942,0562;0,0400026
943,0204;0,0402493
943,9846;0,0405318
944,9489;0,0408558
945,9131;0,0412207
946,8773;0,0416208
947,8416;0,042048
948,8058;0,0424961
949,7700;0,0429636
950,7343;0,0434556
951,6985;0,0439827
952,6627;0,044557
953,6270;0,045186
954,5912;0,0458681
955,5554;0,0465922
956,5197;0,0473429
957,4839;0,0481078
958,4481;0,0488816
959,4124;0,0496658
960,3766;0,0504629
961,3408;0,0512726
962,3051;0,0520908
963,2693;0,0529135
964,2335;0,05374
965,1978;0,0545735
966,1620;0,0554172
967,1262;0,0562719
968,0905;0,0571361
969,0547;0,0580112
970,0189;0,0589068
970,9832;0,0598418
971,9474;0,0608399
972,9116;0,0619223
973,8759;0,0631021
974,8401;0,0643837
975,8043;0,0657656
976,7686;0,0672418
977,7328;0,0688011
978,6970;0,0704239
979,6613;0,0720786
980,6255;0,0737229
981,5897;0,0753078
982,5540;0,0767863
983,5182;0,0781202
984,4824;0,0792868
985,4467;0,0802815
986,4109;0,0811162
987,3751;0,081815
988,3394;0,0824057
989,3036;0,0829133
990,2678;0,0833547
991,2321;0,0837399
992,1963;0,0840762
993,1605;0,0843738
994,1248;0,0846489
995,0890;0,0849212
996,0532;0,0852084
997,0175;0,0855196
997,9817;0,0858533
998,9459;0,0862001
999,9102;0,0865491
1000,8744;0,0868954
1001,8386;0,0872437
1002,8029;0,0876083
1003,7671;0,0880088
1004,7313;0,0884646
1005,6956;0,0889914
1006,6598;0,089599
1007,6240;0,0902917
1008,5883;0,0910701
1009,5525;0,0919311
1010,5167;0,0928673
1011,4810;0,093866
1012,4452;0,094908
1013,4094;0,0959697
1014,3737;0,097027
1015,3379;0,0980594
1016,3021;0,0990533
1017,2664;0,100002
1018,2306;0,100903
1019,1948;0,101756
1020,1591;0,102564
1021,1233;0,103331
1022,0875;0,104068
1023,0518;0,104786
1024,0160;0,105498
1024,9802;0,106208
1025,9445;0,106908
1026,9087;0,10758
1027,8729;0,108195
1028,8372;0,108719
1029,8014;0,109119
1030,7656;0,109365
1031,7299;0,109429
1032,6941;0,109292
1033,6583;0,108946
1034,6226;0,108406
1035,5868;0,107708
1036,5510;0,106906
1037,5153;0,10607
1038,4795;0,105267
1039,4437;0,104554
1040,4080;0,103973
1041,3722;0,103539
1042,3364;0,103246
1043,3007;0,103066
1044,2649;0,102956
1045,2291;0,102866
1046,1934;0,102752
1047,1576;0,102585
1048,1218;0,102349
1049,0861;0,10204
1050,0503;0,101655
1051,0145;0,101191
1051,9788;0,100643
1052,9430;0,100012
1053,9072;0,0993005
1054,8715;0,098519
1055,8357;0,0976719
1056,7999;0,0967516
1057,7642;0,0957363
1058,7284;0,0945971
1059,6926;0,0933135
1060,6569;0,0918875
1061,6211;0,090351
1062,5853;0,0887598
1063,5496;0,0871792
1064,5138;0,0856676
1065,4780;0,084265
1066,4423;0,0829907
1067,4065;0,0818464
1068,3707;0,0808218
1069,3350;0,0798975
1070,2992;0,0790473
1071,2634;0,0782401
1072,2277;0,0774458
1073,1919;0,0766412
1074,1561;0,0758157
1075,1204;0,0749702
1076,0846;0,0741127
1077,0488;0,0732527
1078,0131;0,0723989
1078,9773;0,0715602
1079,9415;0,0707486
1080,9058;0,0699805
1081,8700;0,0692728
1082,8342;0,0686384
1083,7985;0,068082
1084,7627;0,0675995
1085,7269;0,0671806
1086,6912;0,0668122
1087,6554;0,0664818
1088,6196;0,0661803
1089,5839;0,0659053
1090,5481;0,0656635
1091,5123;0,0654687
1092,4766;0,0653365
1093,4408;0,0652757
1094,4050;0,0652815
1095,3693;0,065336
1096,3335;0,0654151
1097,2977;0,0654998
1098,2620;0,0655828
1099,2262;0,0656683
1100,1904;0,0657635
1101,1547;0,0658694
1102,1189;0,0659756
1103,0831;0,0660634
1104,0474;0,0661142
1105,0116;0,066118
1105,9758;0,0660765
1106,9401;0,0659988
1107,9043;0,0658926
1108,8685;0,0657558
1109,8328;0,0655721
1110,7970;0,0653156
1111,7612;0,064961
1112,7255;0,0644961
1113,6897;0,0639317
1114,6539;0,063302
1115,6182;0,0626569
1116,5824;0,0620463
1117,5466;0,0615042
1118,5109;0,0610382
1119,4751;0,0606283
1120,4393;0,0602349
1121,4036;0,0598107
1122,3678;0,0593132
1123,3320;0,0587117
1124,2963;0,0579896
1125,2605;0,057143
1126,2247;0,0561795
1127,1890;0,0551172
1128,1532;0,0539834
1129,1174;0,052812
1130,0817;0,0516372
1131,0459;0,0504879
1132,0101;0,049384
1132,9744;0,0483376
1133,9386;0,0473573
1134,9028;0,0464535
1135,8671;0,0456399
1136,8313;0,0449308
1137,7955;0,0443362
1138,7598;0,043858
1139,7240;0,0434892
1140,6882;0,043218
1141,6525;0,0430307
1142,6167;0,0429155
1143,5809;0,0428626
1144,5452;0,0428644
1145,5094;0,0429152
1146,4736;0,0430117
1147,4379;0,0431521
1148,4021;0,043335
1149,3663;0,0435563
1150,3306;0,0438082
1151,2948;0,0440799
1152,2590;0,0443592
1153,2233;0,044635
1154,1875;0,0448959
1155,1517;0,0451278
1156,1160;0,0453104
1157,0802;0,0454164
1158,0444;0,0454131
1159,0087;0,0452675
1159,9729;0,0449505
1160,9371;0,0444415
1161,9014;0,0437321
1162,8656;0,0428294
1163,8298;0,0417583
1164,7941;0,0405604
1165,7583;0,0392886
1166,7225;0,037998
1167,6868;0,0367355
1168,6510;0,0355334
1169,6152;0,0344084
1170,5795;0,0333663
1171,5437;0,0324092
1172,5079;0,0315407
1173,4722;0,030767
1174,4364;0,0300935
1175,4006;0,0295206
1176,3649;0,0290413
1177,3291;0,0286422
1178,2933;0,0283079
1179,2576;0,0280255
1180,2218;0,0277874
1181,1860;0,0275908
1182,1503;0,027435
1183,1145;0,0273177
1184,0787;0,0272342
1185,0430;0,0271777
1186,0072;0,0271428
1186,9714;0,0271282
1187,9357;0,0271381
1188,8999;0,0271807
1189,8641;0,0272656
1190,8284;0,0273995
1191,7926;0,0275839
1192,7568;0,0278142
1193,7211;0,0280809
1194,6853;0,0283732
1195,6495;0,0286816
1196,6138;0,0290015
1197,5780;0,0293327
1198,5422;0,029678
1199,5065;0,0299968
1200,4707;0,030378
1201,4349;0,0307667
1202,3992;0,0311514
1203,3634;0,0315216
1204,3276;0,0318713
1205,2919;0,0322023
1206,2561;0,0325228
1207,2203;0,0328439
1208,1846;0,0331754
1209,1488;0,0335222
1210,1130;0,0338851
1211,0773;0,0342624
1212,0415;0,0346536
1213,0057;0,0350602
1213,9700;0,035485
1214,9342;0,0359294
1215,8984;0,0363896
1216,8627;0,0368558
1217,8269;0,0373136
1218,7911;0,0377484
1219,7554;0,0381503
1220,7196;0,0385161
1221,6838;0,0388497
1222,6481;0,0391587
1223,6123;0,0394516
1224,5765;0,0397342
1225,5408;0,0400084
1226,5050;0,0402721
1227,4692;0,0405202
1228,4335;0,0407467
1229,3977;0,0409461
1230,3619;0,0411148
1231,3262;0,0412516
1232,2904;0,0413578
1233,2546;0,0414373
1234,2189;0,0414963
1235,1831;0,0415428
1236,1473;0,0415855
1237,1116;0,041631
1238,0758;0,0416814
1239,0400;0,041733
1240,0043;0,0417782
1240,9685;0,0418083
1241,9327;0,0418171
1242,8970;0,041802
1243,8612;0,041763
1244,8254;0,0417002
1245,7897;0,0416122
1246,7539;0,0414978
1247,7181;0,0413587
1248,6824;0,0412011
1249,6466;0,0410352
1250,6108;0,0408712
1251,5751;0,0407148
1252,5393;0,0405654
1253,5035;0,0404175
1254,4678;0,0402652
1255,4320;0,0401064
1256,3962;0,0399446
1257,3605;0,0397853
1258,3247;0,0396324
1259,2889;0,0394829
1260,2532;0,0393268
1261,2174;0,0391502
1262,1816;0,0389417
1263,1459;0,0386969
1264,1101;0,0384191
1265,0743;0,0381159
1266,0386;0,0377949
1267,0028;0,0374606
1267,9670;0,0371151
1268,9313;0,0367601
1269,8955;0,0363984
1270,8597;0,0360327
1271,8240;0,0356623
1272,7882;0,0352822
1273,7524;0,0348853
1274,7167;0,0344676
1275,6809;0,0340331
1276,6451;0,0335937
1277,6094;0,033164
1278,5736;0,0327545
1279,5378;0,0323679
1280,5021;0,0320005
1281,4663;0,0316476
1282,4305;0,0313076
1283,3948;0,030983
1284,3590;0,0306775
1285,3232;0,0303934
1286,2875;0,0301316
1287,2517;0,0298942
1288,2159;0,0296868
1289,1802;0,0295165
1290,1444;0,029389
1291,1086;0,0293037
1292,0729;0,0292547
1293,0371;0,0292339
1294,0013;0,0292364
1294,9656;0,0292628
1295,9298;0,0293177
1296,8940;0,0294061
1297,8583;0,0295294
1298,8225;0,0296847
1299,7867;0,0298673
1300,7510;0,0300729
1301,7152;0,0302998
1302,6794;0,0305484
1303,6437;0,0308189
1304,6079;0,03111
1305,5721;0,0314182
1306,5364;0,0317384
1307,5006;0,0320652
1308,4648;0,0323942
1309,4291;0,0327218
1310,3933;0,0330434
1311,3575;0,033352
1312,3218;0,0336372
1313,2860;0,0338872
1314,2502;0,0340909
1315,2145;0,0342407
1316,1787;0,0343323
1317,1429;0,0343658
1318,1072;0,0343455
1319,0714;0,0342811
1320,0356;0,0341865
1320,9999;0,0340758
1321,9641;0,0339599
1322,9283;0,0338448
1323,8926;0,0337336
1324,8568;0,0336279
1325,8210;0,0335291
1326,7853;0,033437
1327,7495;0,0333493
1328,7137;0,033262
1329,6780;0,0331716
1330,6422;0,0330765
1331,6064;0,0329773
1332,5707;0,0328747
1333,5349;0,0327668
1334,4991;0,0326466
1335,4634;0,0325026
1336,4276;0,0323213
