TITLE;
DATA TYPE;INFRARED SPECTRUM
ORIGIN;JASCO
OWNER;
DATE;25/01/29
TIME;16:00:40
SPECTROMETER/DATA SYSTEM;
LOCALE;9226
RESOLUTION;
DELTAX;0,964233
XUNITS;1/CM
YUNITS;ABSORBANCE
FIRSTX;  399,1927
LASTX; 4000,6047
NPOINTS;    3736
FIRSTY;     0,16386
MAXY;     0,24148
MINY;     0,01084
XYDATA
399,1927;0,163863
400,1569;0,162441
401,1211;0,161351
402,0854;0,160816
403,0496;0,16081
404,0138;0,161178
404,9781;0,161721
405,9423;0,16226
406,9065;0,162703
407,8708;0,163064
408,8350;0,163434
409,7992;0,1639
410,7635;0,164478
411,7277;0,165098
412,6919;0,165645
413,6562;0,166045
414,6204;0,166308
415,5846;0,166521
416,5489;0,16682
417,5131;0,167345
418,4773;0,168145
419,4416;0,169109
420,4058;0,170058
421,3700;0,170925
422,3343;0,171734
423,2985;0,172481
424,2627;0,173078
425,2270;0,173389
426,1912;0,173329
427,1554;0,172947
428,1197;0,172431
429,0839;0,172026
430,0481;0,17194
431,0124;0,172262
431,9766;0,172923
432,9408;0,173715
433,9051;0,174362
434,8693;0,174638
435,8335;0,174467
436,7978;0,173965
437,7620;0,17337
438,7262;0,17291
439,6905;0,172685
440,6547;0,172646
441,6189;0,172646
442,5832;0,172545
443,5474;0,172315
444,5116;0,172058
445,4759;0,171925
446,4401;0,171993
447,4043;0,172206
448,3686;0,172412
449,3328;0,17244
450,2970;0,17219
451,2613;0,171688
452,2255;0,171076
453,1897;0,170547
454,1540;0,170256
455,1182;0,170259
456,0824;0,170489
457,0467;0,170778
458,0109;0,170932
458,9751;0,170853
459,9394;0,170592
460,9036;0,170273
461,8678;0,16999
462,8321;0,169762
463,7963;0,169558
464,7605;0,169344
465,7248;0,169119
466,6890;0,168912
467,6532;0,16875
468,6175;0,168627
469,5817;0,168502
470,5459;0,168342
471,5102;0,168148
472,4744;0,167974
473,4386;0,167888
474,4029;0,167934
475,3671;0,168107
476,3313;0,168383
477,2956;0,16873
478,2598;0,169112
479,2240;0,169485
480,1883;0,169794
481,1525;0,169993
482,1167;0,170071
483,0810;0,170069
484,0452;0,170067
485,0094;0,170152
485,9737;0,170375
486,9379;0,170737
487,9021;0,171193
488,8664;0,171669
489,8306;0,172077
490,7948;0,172344
491,7591;0,17244
492,7233;0,172408
493,6875;0,172355
494,6518;0,172397
495,6160;0,1726
496,5802;0,172949
497,5445;0,173361
498,5087;0,173736
499,4729;0,174006
500,4372;0,174166
501,4014;0,174272
502,3656;0,174408
503,3299;0,174638
504,2941;0,174973
505,2583;0,175377
506,2226;0,175788
507,1868;0,176149
508,1510;0,176433
509,1153;0,176657
510,0795;0,176877
511,0437;0,177165
512,0080;0,177577
512,9722;0,178122
513,9365;0,178761
514,9007;0,179417
515,8649;0,180002
516,8292;0,180459
517,7934;0,180779
518,7576;0,181003
519,7219;0,181185
520,6861;0,181357
521,6503;0,181514
522,6146;0,181632
523,5788;0,18169
524,5430;0,181691
525,5073;0,181658
526,4715;0,18162
527,4357;0,181586
528,4000;0,181533
529,3642;0,181424
530,3284;0,181231
531,2927;0,180952
532,2569;0,180608
533,2211;0,180239
534,1854;0,179888
535,1496;0,179593
536,1138;0,179376
537,0781;0,179243
538,0423;0,179177
539,0065;0,179144
539,9708;0,179111
540,9350;0,179066
541,8992;0,17903
542,8635;0,179051
543,8277;0,179171
544,7919;0,179396
545,7562;0,179693
546,7204;0,180017
547,6846;0,180342
548,6489;0,180679
549,6131;0,18106
550,5773;0,181499
551,5416;0,181972
552,5058;0,182435
553,4700;0,182859
554,4343;0,183249
555,3985;0,183631
556,3627;0,184002
557,3270;0,184287
558,2912;0,184352
559,2554;0,184061
560,2197;0,183356
561,1839;0,182303
562,1481;0,181069
563,1124;0,179855
564,0766;0,178804
565,0408;0,177962
566,0051;0,177289
566,9693;0,176705
567,9335;0,176146
568,8978;0,175592
569,8620;0,175064
570,8262;0,174595
571,7905;0,174206
572,7547;0,173897
573,7189;0,17365
574,6832;0,173446
575,6474;0,173269
576,6116;0,173109
577,5759;0,17296
578,5401;0,172818
579,5043;0,17268
580,4686;0,172542
581,4328;0,172402
582,3970;0,172264
583,3613;0,172132
584,3255;0,172018
585,2897;0,171936
586,2540;0,171907
587,2182;0,171943
588,1824;0,172049
589,1467;0,172206
590,1109;0,17237
591,0751;0,172487
592,0394;0,172507
593,0036;0,172412
593,9678;0,172219
594,9321;0,171965
595,8963;0,171677
596,8605;0,171361
597,8248;0,171007
598,7890;0,170609
599,7532;0,170185
600,7175;0,169776
601,6817;0,169422
602,6459;0,169134
603,6102;0,168891
604,5744;0,168642
605,5386;0,168337
606,5029;0,167942
607,4671;0,167445
608,4313;0,16685
609,3956;0,166175
610,3598;0,165463
611,3240;0,164782
612,2883;0,164218
613,2525;0,163833
614,2167;0,163621
615,1810;0,16348
616,1452;0,163223
617,1094;0,162662
618,0737;0,161698
619,0379;0,160384
620,0021;0,158886
620,9664;0,157391
621,9306;0,156027
622,8948;0,154842
623,8591;0,153821
624,8233;0,152887
625,7875;0,152094
626,7518;0,15143
627,7160;0,150881
628,6802;0,150413
629,6445;0,149976
630,6087;0,149517
631,5729;0,148998
632,5372;0,148416
633,5014;0,147797
634,4656;0,147191
635,4299;0,146647
636,3941;0,146195
637,3583;0,145842
638,3226;0,145567
639,2868;0,145339
640,2510;0,145124
641,2153;0,144896
642,1795;0,144649
643,1437;0,144395
644,1080;0,14416
645,0722;0,143966
646,0364;0,143819
647,0007;0,143696
647,9649;0,143557
648,9291;0,143364
649,8934;0,143111
650,8576;0,142834
651,8218;0,142599
652,7861;0,14248
653,7503;0,142524
654,7145;0,142732
655,6788;0,143047
656,6430;0,143378
657,6072;0,143641
658,5715;0,143794
659,5357;0,143833
660,4999;0,143756
661,4642;0,143523
662,4284;0,143028
663,3926;0,142129
664,3569;0,140748
665,3211;0,139041
666,2853;0,137497
667,2496;0,13672
668,2138;0,136745
669,1780;0,136927
670,1423;0,136926
671,1065;0,136755
672,0707;0,13627
673,0350;0,135316
673,9992;0,133932
674,9634;0,132329
675,9277;0,130737
676,8919;0,129278
677,8561;0,127941
678,8204;0,126659
679,7846;0,125397
680,7488;0,124174
681,7131;0,12304
682,6773;0,122021
683,6415;0,121108
684,6058;0,120275
685,5700;0,119498
686,5342;0,118766
687,4985;0,118077
688,4627;0,117443
689,4269;0,116864
690,3912;0,116347
691,3554;0,115891
692,3196;0,115474
693,2839;0,115057
694,2481;0,114599
695,2123;0,114082
696,1766;0,113522
697,1408;0,112957
698,1050;0,112429
699,0693;0,111956
700,0335;0,111532
700,9977;0,111135
701,9620;0,110736
702,9262;0,110307
703,8904;0,109814
704,8547;0,109254
705,8189;0,108642
706,7831;0,108011
707,7474;0,107399
708,7116;0,106832
709,6758;0,106305
710,6401;0,105789
711,6043;0,105242
712,5685;0,104637
713,5328;0,103982
714,4970;0,103325
715,4612;0,101827
716,4255;0,101496
717,3897;0,101295
718,3539;0,101091
719,3182;0,1007
720,2824;0,0999848
721,2466;0,0989395
722,2109;0,097693
723,1751;0,0964302
724,1393;0,0952937
725,1036;0,0943332
726,0678;0,0935164
727,0320;0,0927765
727,9963;0,0920602
728,9605;0,0913522
729,9247;0,0906672
730,8890;0,0900267
731,8532;0,0894393
732,8174;0,0888978
733,7817;0,0883878
734,7459;0,0878977
735,7101;0,0874217
736,6744;0,0869563
737,6386;0,0864972
738,6028;0,0860388
739,5671;0,085578
740,5313;0,0851172
741,4955;0,0846643
742,4598;0,084228
743,4240;0,0838123
744,3882;0,083413
745,3525;0,0830194
746,3167;0,0826191
747,2809;0,0822032
748,2452;0,0817688
749,2094;0,0813179
750,1736;0,0808536
751,1379;0,0803789
752,1021;0,0798974
753,0663;0,0794148
754,0306;0,0789402
754,9948;0,0784828
755,9590;0,0780478
756,9233;0,0776343
757,8875;0,077237
758,8517;0,0768516
759,8160;0,0764786
760,7802;0,0761224
761,7444;0,0757875
762,7087;0,0754732
763,6729;0,0751736
764,6371;0,074882
765,6014;0,0745959
766,5656;0,0743185
767,5298;0,0740536
768,4941;0,0738002
769,4583;0,0735493
770,4225;0,0732889
771,3868;0,0730124
772,3510;0,0727242
773,3152;0,0724379
774,2795;0,072167
775,2437;0,0719153
776,2079;0,0716742
777,1722;0,0714286
778,1364;0,0711676
779,1006;0,0708907
780,0649;0,0706079
781,0291;0,0703316
781,9933;0,0700684
782,9576;0,0698157
783,9218;0,0695639
784,8860;0,0693023
785,8503;0,0690248
786,8145;0,0687326
787,7787;0,0684346
788,7430;0,0681454
789,7072;0,0678824
790,6714;0,0676619
791,6357;0,0674932
792,5999;0,0673737
793,5641;0,0672867
794,5284;0,0672057
795,4926;0,0671038
796,4568;0,066964
797,4211;0,0667874
798,3853;0,0665917
799,3495;0,0664024
800,3138;0,0662391
801,2780;0,0661057
802,2422;0,0659887
803,2065;0,0658658
804,1707;0,0657192
805,1349;0,0655463
806,0992;0,0653607
807,0634;0,0651837
808,0276;0,0650308
808,9919;0,0649029
809,9561;0,064787
810,9203;0,0646658
811,8846;0,0645309
812,8488;0,0643889
813,8130;0,0642574
814,7773;0,0641535
815,7415;0,0640825
816,7057;0,0640337
817,6700;0,0639872
818,6342;0,0639246
819,5984;0,0638375
820,5627;0,063728
821,5269;0,0636033
822,4911;0,0634698
823,4554;0,0633319
824,4196;0,0631951
825,3839;0,0630689
826,3481;0,0629648
827,3123;0,0628892
828,2766;0,0628364
829,2408;0,0627877
830,2050;0,0627188
831,1693;0,0626103
832,1335;0,0624557
833,0977;0,0622622
834,0620;0,0620451
835,0262;0,0618198
835,9904;0,0615969
836,9547;0,0613817
837,9189;0,061176
838,8831;0,0609807
839,8474;0,060797
840,8116;0,0606273
841,7758;0,0604748
842,7401;0,0603422
843,7043;0,0602299
844,6685;0,0601341
845,6328;0,0600471
846,5970;0,059961
847,5612;0,0598722
848,5255;0,0597842
849,4897;0,0597059
850,4539;0,0596456
851,4182;0,0596048
852,3824;0,0595751
853,3466;0,0595421
854,3109;0,0594926
855,2751;0,0594215
856,2393;0,0593344
857,2036;0,0592434
858,1678;0,0591611
859,1320;0,059095
860,0963;0,0590462
861,0605;0,059012
862,0247;0,0589904
862,9890;0,058983
863,9532;0,0589945
864,9174;0,0590306
865,8817;0,0590942
866,8459;0,0591844
867,8101;0,0592961
868,7744;0,0594218
869,7386;0,0595541
870,7028;0,0596879
871,6671;0,0598217
872,6313;0,0599581
873,5955;0,0601017
874,5598;0,0602555
875,5240;0,0604174
876,4882;0,0605809
877,4525;0,0607388
878,4167;0,0608908
879,3809;0,0610479
880,3452;0,0612321
881,3094;0,0614693
882,2736;0,0617808
883,2379;0,0621767
884,2021;0,062656
885,1663;0,0632116
886,1306;0,0638368
887,0948;0,064529
888,0590;0,0652881
889,0233;0,0661104
889,9875;0,0669825
890,9517;0,0678764
891,9160;0,068751
892,8802;0,0695589
893,8444;0,0702564
894,8087;0,0708124
895,7729;0,0712126
896,7371;0,0714559
897,7014;0,0715461
898,6656;0,0714852
899,6298;0,0712715
900,5941;0,0709055
901,5583;0,0703981
902,5225;0,0697762
903,4868;0,0690818
904,4510;0,0683644
905,4152;0,0676714
906,3795;0,0670412
907,3437;0,0664992
908,3079;0,0660581
909,2722;0,0657186
910,2364;0,0654715
911,2007;0,0652995
912,1649;0,0651828
913,1292;0,0651055
914,0934;0,0650611
915,0576;0,065054
916,0219;0,0650958
916,9861;0,0651966
917,9503;0,0653574
918,9146;0,0655677
919,8788;0,0658089
920,8430;0,0660631
921,8073;0,0663197
922,7715;0,0665768
923,7357;0,066836
924,7000;0,067095
925,6642;0,0673449
926,6284;0,0675731
927,5927;0,0677723
928,5569;0,0679466
929,5211;0,0681124
930,4854;0,0682905
931,4496;0,0684973
932,4138;0,0687381
933,3781;0,0690084
934,3423;0,0693011
935,3065;0,0696135
936,2708;0,0699515
937,2350;0,0703277
938,1992;0,0707569
939,1635;0,0712507
940,1277;0,0718145
941,0919;0,0724467
942,0562;0,0731411
943,0204;0,0738909
943,9846;0,0746927
944,9489;0,0755496
945,9131;0,0764701
946,8773;0,0774643
947,8416;0,0785367
948,8058;0,0796834
949,7700;0,080893
950,7343;0,0821524
951,6985;0,0834541
952,6627;0,0847994
953,6270;0,0861964
954,5912;0,0876547
955,5554;0,0891792
956,5197;0,0907678
957,4839;0,0924124
958,4481;0,0941028
959,4124;0,0958295
960,3766;0,0975849
961,3408;0,0993627
962,3051;0,101156
963,2693;0,102958
964,2335;0,104759
965,1978;0,106556
966,1620;0,108351
967,1262;0,110156
968,0905;0,111994
969,0547;0,113897
970,0189;0,115896
970,9832;0,118023
971,9474;0,120304
972,9116;0,122765
973,8759;0,125429
974,8401;0,128316
975,8043;0,131442
976,7686;0,134808
977,7328;0,138399
978,6970;0,142173
979,6613;0,14606
980,6255;0,149964
981,5897;0,153772
982,5540;0,157367
983,5182;0,160646
984,4824;0,163546
985,4467;0,166049
986,4109;0,168185
987,3751;0,170018
988,3394;0,171622
989,3036;0,173067
990,2678;0,174397
991,2321;0,175635
992,1963;0,176787
993,1605;0,177856
994,1248;0,178855
995,0890;0,179808
996,0532;0,180748
997,0175;0,181705
997,9817;0,182694
998,9459;0,183716
999,9102;0,184758
1000,8744;0,185811
1001,8386;0,186883
1002,8029;0,188001
1003,7671;0,189209
1004,7313;0,190552
1005,6956;0,192069
1006,6598;0,193781
1007,6240;0,195698
1008,5883;0,197821
1009,5525;0,200138
1010,5167;0,202629
1011,4810;0,205259
1012,4452;0,207979
1013,4094;0,210727
1014,3737;0,213441
1015,3379;0,21607
1016,3021;0,218571
1017,2664;0,22092
1018,2306;0,223106
1019,1948;0,225133
1020,1591;0,227012
1021,1233;0,228765
1022,0875;0,230416
1023,0518;0,23199
1024,0160;0,233505
1024,9802;0,234969
1025,9445;0,236383
1026,9087;0,237729
1027,8729;0,238974
1028,8372;0,24006
1029,8014;0,240906
1030,7656;0,241414
1031,7299;0,24148
1032,6941;0,241024
1033,6583;0,240008
1034,6226;0,238456
1035,5868;0,236462
1036,5510;0,234174
1037,5153;0,231774
1038,4795;0,229448
1039,4437;0,227357
1040,4080;0,225615
1041,3722;0,224279
1042,3364;0,223345
1043,3007;0,222754
1044,2649;0,222409
1045,2291;0,222197
1046,1934;0,222011
1047,1576;0,221768
1048,1218;0,22141
1049,0861;0,220897
1050,0503;0,2202
1051,0145;0,219291
1051,9788;0,218154
1052,9430;0,216787
1053,9072;0,215205
1054,8715;0,213428
1055,8357;0,211452
1056,7999;0,209241
1057,7642;0,206727
1058,7284;0,203839
1059,6926;0,200544
1060,6569;0,196877
1061,6211;0,192946
1062,5853;0,188909
1063,5496;0,184932
1064,5138;0,18115
1065,4780;0,177647
1066,4423;0,17445
1067,4065;0,171547
1068,3707;0,168901
1069,3350;0,166469
1070,2992;0,16421
1071,2634;0,162085
1072,2277;0,160054
1073,1919;0,15807
1074,1561;0,156088
1075,1204;0,154068
1076,0846;0,151996
1077,0488;0,149883
1078,0131;0,14777
1078,9773;0,145714
1079,9415;0,143778
1080,9058;0,142013
1081,8700;0,140453
1082,8342;0,139108
1083,7985;0,137972
1084,7627;0,137022
1085,7269;0,136225
1086,6912;0,135544
1087,6554;0,134949
1088,6196;0,134423
1089,5839;0,133965
1090,5481;0,13359
1091,5123;0,133318
1092,4766;0,133162
1093,4408;0,133124
1094,4050;0,133192
1095,3693;0,133347
1096,3335;0,133568
1097,2977;0,133839
1098,2620;0,134146
1099,2262;0,134476
1100,1904;0,13481
1101,1547;0,135123
1102,1189;0,135379
1103,0831;0,135546
1104,0474;0,135595
1105,0116;0,135515
1105,9758;0,13531
1106,9401;0,134995
1107,9043;0,134583
1108,8685;0,134071
1109,8328;0,13343
1110,7970;0,132612
1111,7612;0,131567
1112,7255;0,130274
1113,6897;0,128765
1114,6539;0,127122
1115,6182;0,125458
1116,5824;0,123881
1117,5466;0,122457
1118,5109;0,121192
1119,4751;0,12004
1120,4393;0,118913
1121,4036;0,117719
1122,3678;0,116374
1123,3320;0,114823
1124,2963;0,113041
1125,2605;0,111034
1126,2247;0,108833
1127,1890;0,106484
1128,1532;0,104041
1129,1174;0,101553
1130,0817;0,0990597
1131,0459;0,0965923
1132,0101;0,0941769
1132,9744;0,0918443
1133,9386;0,0896346
1134,9028;0,0875973
1135,8671;0,0857844
1136,8313;0,0842395
1137,7955;0,0829898
1138,7598;0,082042
1139,7240;0,0813842
1140,6882;0,0809912
1141,6525;0,08083
1142,6167;0,0808645
1143,5809;0,0810584
1144,5452;0,0813784
1145,5094;0,0817968
1146,4736;0,0822947
1147,4379;0,0828624
1148,4021;0,0834971
1149,3663;0,084197
1150,3306;0,0849545
1151,2948;0,0857515
1152,2590;0,086559
1153,2233;0,0873407
1154,1875;0,088058
1155,1517;0,0886733
1156,1160;0,0891478
1157,0802;0,0894361
1158,0444;0,0894815
1159,0087;0,089216
1159,9729;0,088568
1160,9371;0,0874769
1161,9014;0,0859094
1162,8656;0,0838725
1163,8298;0,0814183
1164,7941;0,0786394
1165,7583;0,0756556
1166,7225;0,0725968
1167,6868;0,0695845
1168,6510;0,0667175
1169,6152;0,0640626
1170,5795;0,0616547
1171,5437;0,0595026
1172,5079;0,0575985
1173,4722;0,0559267
1174,4364;0,0544695
1175,4006;0,0532084
1176,3649;0,0521253
1177,3291;0,0512017
1178,2933;0,0504198
1179,2576;0,0497631
1180,2218;0,0492161
1181,1860;0,0487646
1182,1503;0,0483961
1183,1145;0,0481015
1184,0787;0,047876
1185,0430;0,04772
1186,0072;0,0476376
1186,9714;0,047635
1187,9357;0,0477178
1188,8999;0,0478902
1189,8641;0,0481545
1190,8284;0,0485113
1191,7926;0,0489596
1192,7568;0,0494956
1193,7211;0,0501119
1194,6853;0,050797
1195,6495;0,0515356
1196,6138;0,0523102
1197,5780;0,0531031
1198,5422;0,0538988
1199,5065;0,0545685
1200,4707;0,055353
1201,4349;0,0561181
1202,3992;0,0568602
1203,3634;0,0575752
1204,3276;0,058258
1205,2919;0,0589056
1206,2561;0,0595205
1207,2203;0,0601149
1208,1846;0,0607114
1209,1488;0,0613399
1210,1130;0,0620313
1211,0773;0,0628096
1212,0415;0,0636868
1213,0057;0,0646605
1213,9700;0,0657165
1214,9342;0,0668335
1215,8984;0,0679878
1216,8627;0,0691554
1217,8269;0,0703135
1218,7911;0,0714432
1219,7554;0,0725307
1220,7196;0,0735678
1221,6838;0,0745519
1222,6481;0,0754837
1223,6123;0,0763658
1224,5765;0,0772004
1225,5408;0,0779892
1226,5050;0,0787337
1227,4692;0,0794348
1228,4335;0,080093
1229,3977;0,0807075
1230,3619;0,0812771
1231,3262;0,0817998
1232,2904;0,0822732
1233,2546;0,0826931
1234,2189;0,0830539
1235,1831;0,0833505
1236,1473;0,0835805
1237,1116;0,0837473
1238,0758;0,0838595
1239,0400;0,0839273
1240,0043;0,0839574
1240,9685;0,0839481
1241,9327;0,0838902
1242,8970;0,083771
1243,8612;0,0835801
1244,8254;0,0833136
1245,7897;0,0829757
1246,7539;0,082576
1247,7181;0,082126
1248,6824;0,081636
1249,6466;0,0811139
1250,6108;0,0805666
1251,5751;0,0800019
1252,5393;0,0794306
1253,5035;0,0788651
1254,4678;0,0783143
1255,4320;0,0777778
1256,3962;0,0772437
1257,3605;0,0766921
1258,3247;0,0761037
1259,2889;0,0754689
1260,2532;0,0747904
1261,2174;0,0740789
1262,1816;0,0733436
1263,1459;0,0725861
1264,1101;0,0718016
1265,0743;0,0709845
1266,0386;0,0701346
1267,0028;0,0692579
1267,9670;0,0683627
1268,9313;0,067456
1269,8955;0,0665418
1270,8597;0,0656234
1271,8240;0,0647067
1272,7882;0,0638009
1273,7524;0,0629166
1274,7167;0,0620632
1275,6809;0,061247
1276,6451;0,0604702
1277,6094;0,0597303
1278,5736;0,0590199
1279,5378;0,0583285
1280,5021;0,0576462
1281,4663;0,0569683
1282,4305;0,0562978
1283,3948;0,0556447
1284,3590;0,0550223
1285,3232;0,0544438
1286,2875;0,0539202
1287,2517;0,0534602
1288,2159;0,0530702
1289,1802;0,052753
1290,1444;0,052507
1291,1086;0,052327
1292,0729;0,0522081
1293,0371;0,0521495
1294,0013;0,052157
1294,9656;0,0522399
1295,9298;0,0524072
1296,8940;0,052662
1297,8583;0,0530008
1298,8225;0,0534161
1299,7867;0,0538989
1300,7510;0,054441
1301,7152;0,0550358
1302,6794;0,0556762
1303,6437;0,0563548
1304,6079;0,0570665
1305,5721;0,0578079
1306,5364;0,0585763
1307,5006;0,059368
1308,4648;0,0601762
1309,4291;0,0609901
1310,3933;0,0617937
1311,3575;0,0625666
1312,3218;0,0632845
1313,2860;0,0639218
1314,2502;0,0644542
1315,2145;0,0648601
1316,1787;0,0651205
1317,1429;0,0652226
1318,1072;0,0651672
1319,0714;0,0649756
1320,0356;0,06469
1320,9999;0,064361
1321,9641;0,0640317
1322,9283;0,0637279
1323,8926;0,0634599
1324,8568;0,0632298
1325,8210;0,0630371
1326,7853;0,0628808
1327,7495;0,0627564
1328,7137;0,0626536
1329,6780;0,0625563
1330,6422;0,0624469
1331,6064;0,0623121
1332,5707;0,0621457
1333,5349;0,0619467
1334,4991;0,0617109
1335,4634;0,0614228
1336,4276;0,0610528
1337,3918;0,060567
1338,3561;0,0599533
1339,3203;0,0592491
1340,2845;0,0585412
1341,2488;0,0579187
1342,2130;0,0574245
1343,1772;0,0570497
1344,1415;0,0567622
1345,1057;0,0565361
1346,0699;0,0563645
1347,0342;0,0562577
1347,9984;0,0562337
1348,9626;0,0563068
1349,9269;0,056479
1350,8911;0,0567379
1351,8553;0,0570621
1352,8196;0,0574312
1353,7838;0,0578367
1354,7480;0,0582848
1355,7123;0,0587893
1356,6765;0,0593569
1357,6407;0,0599775
1358,6050;0,0606265
