TITLE;
DATA TYPE;INFRARED SPECTRUM
ORIGIN;JASCO
OWNER;
DATE;25/02/05
TIME;12:00:12
SPECTROMETER/DATA SYSTEM;
LOCALE;9226
RESOLUTION;
DELTAX;0,964233
XUNITS;1/CM
YUNITS;ABSORBANCE
FIRSTX;  399,1927
LASTX; 4000,6047
NPOINTS;    3736
FIRSTY;     0,14054
MAXY;     0,18955
MINY;     0,00935
XYDATA
399,1927;0,140542
400,1569;0,139888
401,1211;0,138798
402,0854;0,137659
403,0496;0,136808
404,0138;0,136502
404,9781;0,136859
405,9423;0,137772
406,9065;0,138895
407,8708;0,13977
408,8350;0,14005
409,7992;0,139654
410,7635;0,138808
411,7277;0,137927
412,6919;0,137394
413,6562;0,137381
414,6204;0,137824
415,5846;0,138528
416,5489;0,139244
417,5131;0,139719
418,4773;0,139797
419,4416;0,139574
420,4058;0,13934
421,3700;0,139299
422,3343;0,139462
423,2985;0,139763
424,2627;0,14015
425,2270;0,140607
426,1912;0,141135
427,1554;0,141725
428,1197;0,142338
429,0839;0,14292
430,0481;0,14342
431,0124;0,143824
431,9766;0,144162
432,9408;0,144482
433,9051;0,144813
434,8693;0,145134
435,8335;0,145387
436,7978;0,145532
437,7620;0,145572
438,7262;0,145561
439,6905;0,14556
440,6547;0,145612
441,6189;0,145735
442,5832;0,145929
443,5474;0,146188
444,5116;0,146492
445,4759;0,146792
446,4401;0,147016
447,4043;0,147098
448,3686;0,147005
449,3328;0,146749
450,2970;0,146378
451,2613;0,145943
452,2255;0,14548
453,1897;0,145013
454,1540;0,144585
455,1182;0,144288
456,0824;0,144263
457,0467;0,144627
458,0109;0,145355
458,9751;0,146224
459,9394;0,146929
460,9036;0,147271
461,8678;0,14723
462,8321;0,146929
463,7963;0,146555
464,7605;0,146276
465,7248;0,146182
466,6890;0,146237
467,6532;0,146316
468,6175;0,146267
469,5817;0,145998
470,5459;0,145526
471,5102;0,144986
472,4744;0,144586
473,4386;0,14449
474,4029;0,14473
475,3671;0,145204
476,3313;0,14575
477,2956;0,146223
478,2598;0,146529
479,2240;0,14664
480,1883;0,14659
481,1525;0,146448
482,1167;0,146292
483,0810;0,146181
484,0452;0,146139
485,0094;0,146159
485,9737;0,146216
486,9379;0,146284
487,9021;0,14635
488,8664;0,146415
489,8306;0,146488
490,7948;0,146585
491,7591;0,146707
492,7233;0,14683
493,6875;0,146913
494,6518;0,146913
495,6160;0,146815
496,5802;0,146647
497,5445;0,146473
498,5087;0,146363
499,4729;0,146366
500,4372;0,146493
501,4014;0,146718
502,3656;0,146986
503,3299;0,147245
504,2941;0,147453
505,2583;0,147584
506,2226;0,147627
507,1868;0,147592
508,1510;0,147522
509,1153;0,147488
510,0795;0,147552
511,0437;0,147737
512,0080;0,148008
512,9722;0,148296
513,9365;0,14854
514,9007;0,148726
515,8649;0,148893
516,8292;0,149104
517,7934;0,149383
518,7576;0,149682
519,7219;0,149905
520,6861;0,149972
521,6503;0,149869
522,6146;0,149648
523,5788;0,149393
524,5430;0,149185
525,5073;0,14907
526,4715;0,149042
527,4357;0,149057
528,4000;0,149063
529,3642;0,149027
530,3284;0,148936
531,2927;0,148793
532,2569;0,148606
533,2211;0,148384
534,1854;0,148136
535,1496;0,147874
536,1138;0,14761
537,0781;0,147365
538,0423;0,147169
539,0065;0,147053
539,9708;0,147034
540,9350;0,147099
541,8992;0,147209
542,8635;0,147311
543,8277;0,147366
544,7919;0,147374
545,7562;0,147376
546,7204;0,147428
547,6846;0,147573
548,6489;0,147819
549,6131;0,148142
550,5773;0,148505
551,5416;0,148885
552,5058;0,149274
553,4700;0,14967
554,4343;0,150054
555,3985;0,15038
556,3627;0,150585
557,3270;0,150598
558,2912;0,150368
559,2554;0,149879
560,2197;0,149151
561,1839;0,148242
562,1481;0,14723
563,1124;0,146199
564,0766;0,145217
565,0408;0,144331
566,0051;0,143561
566,9693;0,142909
567,9335;0,142366
568,8978;0,141913
569,8620;0,141529
570,8262;0,141193
571,7905;0,14089
572,7547;0,140619
573,7189;0,140383
574,6832;0,140186
575,6474;0,14002
576,6116;0,139867
577,5759;0,139709
578,5401;0,139542
579,5043;0,139384
580,4686;0,139267
581,4328;0,13922
582,3970;0,139254
583,3613;0,139359
584,3255;0,139505
585,2897;0,139657
586,2540;0,139784
587,2182;0,139865
588,1824;0,139888
589,1467;0,139852
590,1109;0,13977
591,0751;0,139669
592,0394;0,139573
593,0036;0,139493
593,9678;0,139416
594,9321;0,139314
595,8963;0,139154
596,8605;0,138922
597,8248;0,138625
598,7890;0,138289
599,7532;0,13795
600,7175;0,137637
601,6817;0,13737
602,6459;0,137153
603,6102;0,136975
604,5744;0,136809
605,5386;0,13662
606,5029;0,136366
607,4671;0,136023
608,4313;0,135586
609,3956;0,135079
610,3598;0,134538
611,3240;0,133995
612,2883;0,133469
613,2525;0,132959
614,2167;0,132454
615,1810;0,131937
616,1452;0,13139
617,1094;0,13079
618,0737;0,13012
619,0379;0,129371
620,0021;0,128558
620,9664;0,127713
621,9306;0,12688
622,8948;0,126102
623,8591;0,125406
624,8233;0,124804
625,7875;0,124268
626,7518;0,123765
627,7160;0,123265
628,6802;0,122744
629,6445;0,122193
630,6087;0,121614
631,5729;0,121024
632,5372;0,12045
633,5014;0,119925
634,4656;0,11947
635,4299;0,119085
636,3941;0,118743
637,3583;0,118401
638,3226;0,118022
639,2868;0,117593
640,2510;0,117127
641,2153;0,116656
642,1795;0,116209
643,1437;0,115796
644,1080;0,115404
645,0722;0,115012
646,0364;0,114603
647,0007;0,11418
647,9649;0,113764
648,9291;0,11339
649,8934;0,113088
650,8576;0,112871
651,8218;0,112733
652,7861;0,112656
653,7503;0,112628
654,7145;0,11265
655,6788;0,112732
656,6430;0,112877
657,6072;0,113062
658,5715;0,113234
659,5357;0,11333
660,4999;0,113312
661,4642;0,113204
662,4284;0,11308
663,3926;0,113012
664,3569;0,113011
665,3211;0,112979
666,2853;0,112679
667,2496;0,111823
668,2138;0,110399
669,1780;0,108898
670,1423;0,107772
671,1065;0,106983
672,0707;0,106289
673,0350;0,105497
673,9992;0,104503
674,9634;0,103306
675,9277;0,102007
676,8919;0,100758
677,8561;0,0996682
678,8204;0,0987556
679,7846;0,0979777
680,7488;0,0972837
681,7131;0,0966427
682,6773;0,0960434
683,6415;0,095486
684,6058;0,0949786
685,5700;0,094536
686,5342;0,0941716
687,4985;0,093886
688,4627;0,0936583
689,4269;0,0934571
690,3912;0,0932547
691,3554;0,0930405
692,3196;0,0928217
693,2839;0,0926116
694,2481;0,0924158
695,2123;0,0922254
696,1766;0,0920195
697,1408;0,0917771
698,1050;0,0914889
699,0693;0,0911653
700,0335;0,0908329
700,9977;0,0905227
701,9620;0,0902547
702,9262;0,0900269
703,8904;0,0898174
704,8547;0,0895908
705,8189;0,0893182
706,7831;0,0889903
707,7474;0,0886187
708,7116;0,0882262
709,6758;0,0878337
710,6401;0,0874515
711,6043;0,087079
712,5685;0,0867103
713,5328;0,086339
714,4970;0,0859588
715,4612;0,0856918
716,4255;0,0852344
717,3897;0,0847222
718,3539;0,0841612
719,3182;0,0835801
720,2824;0,0830229
721,2466;0,0825243
722,2109;0,0820875
723,1751;0,0816795
724,1393;0,0812507
725,1036;0,0807625
726,0678;0,080207
727,0320;0,0796094
727,9963;0,0790122
728,9605;0,0784518
729,9247;0,0779416
730,8890;0,0774722
731,8532;0,0770258
732,8174;0,0765911
733,7817;0,0761699
734,7459;0,0757723
735,7101;0,075406
736,6744;0,0750694
737,6386;0,0747515
738,6028;0,0744378
739,5671;0,074118
740,5313;0,0737894
741,4955;0,073455
742,4598;0,0731193
743,4240;0,0727839
744,3882;0,0724474
745,3525;0,0721082
746,3167;0,071766
747,2809;0,0714221
748,2452;0,0710773
749,2094;0,0707293
750,1736;0,0703738
751,1379;0,070007
752,1021;0,0696285
753,0663;0,0692422
754,0306;0,0688542
754,9948;0,0684712
755,9590;0,0680996
756,9233;0,0677461
757,8875;0,0674182
758,8517;0,0671214
759,8160;0,0668568
760,7802;0,0666196
761,7444;0,0664008
762,7087;0,0661901
763,6729;0,0659783
764,6371;0,0657576
765,6014;0,0655206
766,5656;0,0652626
767,5298;0,0649848
768,4941;0,0646971
769,4583;0,0644162
770,4225;0,0641582
771,3868;0,0639289
772,3510;0,0637209
773,3152;0,0635175
774,2795;0,0633033
775,2437;0,0630731
776,2079;0,0628341
777,1722;0,0625992
778,1364;0,0623779
779,1006;0,0621697
780,0649;0,0619644
781,0291;0,0617473
781,9933;0,0615066
782,9576;0,0612373
783,9218;0,0609425
784,8860;0,0606319
785,8503;0,0603193
786,8145;0,0600193
787,7787;0,0597442
788,7430;0,0595009
789,7072;0,0592896
790,6714;0,0591054
791,6357;0,0589416
792,5999;0,0587932
793,5641;0,0586565
794,5284;0,0585278
795,4926;0,0584009
796,4568;0,0582685
797,4211;0,0581256
798,3853;0,0579731
799,3495;0,0578183
800,3138;0,0576691
801,2780;0,0575283
802,2422;0,0573911
803,2065;0,0572483
804,1707;0,0570946
805,1349;0,0569332
806,0992;0,0567753
807,0634;0,056633
808,0276;0,0565121
808,9919;0,0564097
809,9561;0,0563171
810,9203;0,0562264
811,8846;0,0561339
812,8488;0,0560392
813,8130;0,0559407
814,7773;0,0558335
815,7415;0,0557097
816,7057;0,0555635
817,6700;0,0553958
818,6342;0,0552156
819,5984;0,0550377
820,5627;0,0548768
821,5269;0,0547424
822,4911;0,0546349
823,4554;0,0545461
824,4196;0,0544628
825,3839;0,0543718
826,3481;0,0542645
827,3123;0,0541398
828,2766;0,0540042
829,2408;0,0538683
830,2050;0,0537427
831,1693;0,0536332
832,1335;0,0535389
833,0977;0,0534514
834,0620;0,0533578
835,0262;0,0532443
835,9904;0,0531003
836,9547;0,0529219
837,9189;0,0527119
838,8831;0,0524786
839,8474;0,0522323
840,8116;0,0519839
841,7758;0,0517446
842,7401;0,0515264
843,7043;0,051341
844,6685;0,0511965
845,6328;0,0510927
846,5970;0,0510199
847,5612;0,0509611
848,5255;0,0508993
849,4897;0,0508246
850,4539;0,0507367
851,4182;0,0506425
852,3824;0,0505502
853,3466;0,0504655
854,3109;0,0503913
855,2751;0,0503299
856,2393;0,0502852
857,2036;0,050263
858,1678;0,0502677
859,1320;0,0503001
860,0963;0,0503566
861,0605;0,0504313
862,0247;0,0505179
862,9890;0,050612
863,9532;0,0507119
864,9174;0,0508191
865,8817;0,0509384
866,8459;0,0510775
867,8101;0,0512445
868,7744;0,0514448
869,7386;0,0516777
870,7028;0,0519353
871,6671;0,0522031
872,6313;0,0524635
873,5955;0,0526987
874,5598;0,0528948
875,5240;0,0530449
876,4882;0,0531513
877,4525;0,0532269
878,4167;0,0532915
879,3809;0,053368
880,3452;0,0534754
881,3094;0,0536266
882,2736;0,0538291
883,2379;0,0540894
884,2021;0,0544159
885,1663;0,0548194
886,1306;0,0553082
887,0948;0,0558831
888,0590;0,0565338
889,0233;0,0572402
889,9875;0,0579771
890,9517;0,0587184
891,9160;0,0594393
892,8802;0,0601158
893,8444;0,0607229
894,8087;0,0612352
895,7729;0,0616279
896,7371;0,0618801
897,7014;0,0619768
898,6656;0,0619103
899,6298;0,0616818
900,5941;0,0613036
901,5583;0,0608003
902,5225;0,0602091
903,4868;0,0595743
904,4510;0,0589394
905,4152;0,0583381
906,3795;0,0577908
907,3437;0,0573055
908,3079;0,0568842
909,2722;0,0565282
910,2364;0,0562393
911,2007;0,0560174
912,1649;0,0558575
913,1292;0,0557505
914,0934;0,0556869
915,0576;0,0556626
916,0219;0,0556799
916,9861;0,0557433
917,9503;0,0558533
918,9146;0,0560025
919,8788;0,0561775
920,8430;0,0563662
921,8073;0,0565627
922,7715;0,0567684
923,7357;0,056987
924,7000;0,0572187
925,6642;0,0574577
926,6284;0,0576952
927,5927;0,0579254
928,5569;0,0581487
929,5211;0,058372
930,4854;0,0586051
931,4496;0,0588571
932,4138;0,059135
933,3781;0,0594435
934,3423;0,0597852
935,3065;0,0601596
936,2708;0,0605631
937,2350;0,0609916
938,1992;0,0614446
939,1635;0,0619292
940,1277;0,0624588
941,0919;0,0630476
942,0562;0,0637025
943,0204;0,0644198
943,9846;0,0651883
944,9489;0,0659975
945,9131;0,0668467
946,8773;0,0677462
947,8416;0,0687126
948,8058;0,0697582
949,7700;0,0708839
950,7343;0,0720784
951,6985;0,0733246
952,6627;0,0746097
953,6270;0,0759305
954,5912;0,0772937
955,5554;0,0787084
956,5197;0,0801781
957,4839;0,0816965
958,4481;0,0832489
959,4124;0,0848183
960,3766;0,0863911
961,3408;0,0879596
962,3051;0,0895206
963,2693;0,0910718
964,2335;0,0926116
965,1978;0,0941409
966,1620;0,095666
967,1262;0,0972013
968,0905;0,0987668
969,0547;0,100386
970,0189;0,102082
970,9832;0,103878
971,9474;0,105795
972,9116;0,10785
973,8759;0,110056
974,8401;0,112414
975,8043;0,11492
976,7686;0,117565
977,7328;0,120335
978,6970;0,12321
979,6613;0,126153
980,6255;0,129102
981,5897;0,131975
982,5540;0,134677
983,5182;0,137125
984,4824;0,139269
985,4467;0,141101
986,4109;0,142653
987,3751;0,143982
988,3394;0,145146
989,3036;0,146191
990,2678;0,147147
991,2321;0,148026
992,1963;0,148836
993,1605;0,149586
994,1248;0,150294
995,0890;0,150983
996,0532;0,151675
997,0175;0,152385
997,9817;0,153118
998,9459;0,153866
999,9102;0,154622
1000,8744;0,155383
1001,8386;0,156153
1002,8029;0,156948
1003,7671;0,157786
1004,7313;0,158691
1005,6956;0,159685
1006,6598;0,160794
1007,6240;0,162039
1008,5883;0,163435
1009,5525;0,16498
1010,5167;0,166653
1011,4810;0,168412
1012,4452;0,17021
1013,4094;0,171998
1014,3737;0,173734
1015,3379;0,175392
1016,3021;0,176953
1017,2664;0,178407
1018,2306;0,179749
1019,1948;0,180984
1020,1591;0,18212
1021,1233;0,183169
1022,0875;0,184143
1023,0518;0,18505
1024,0160;0,185894
1024,9802;0,186677
1025,9445;0,187399
1026,9087;0,188056
1027,8729;0,188633
1028,8372;0,189102
1029,8014;0,189423
1030,7656;0,189546
1031,7299;0,189424
1032,6941;0,189021
1033,6583;0,188324
1034,6226;0,187351
1035,5868;0,186153
1036,5510;0,184815
1037,5153;0,183437
1038,4795;0,182128
1039,4437;0,180978
1040,4080;0,180044
1041,3722;0,179343
1042,3364;0,178857
1043,3007;0,17854
1044,2649;0,178336
1045,2291;0,178187
1046,1934;0,178037
1047,1576;0,177839
1048,1218;0,177552
1049,0861;0,177145
1050,0503;0,176597
1051,0145;0,175894
1051,9788;0,175034
1052,9430;0,174018
1053,9072;0,172854
1054,8715;0,171551
1055,8357;0,17011
1056,7999;0,168525
1057,7642;0,166771
1058,7284;0,164818
1059,6926;0,162641
1060,6569;0,160245
1061,6211;0,157673
1062,5853;0,15501
1063,5496;0,152362
1064,5138;0,14983
1065,4780;0,147485
1066,4423;0,145353
1067,4065;0,143422
1068,3707;0,141655
1069,3350;0,140009
1070,2992;0,138446
1071,2634;0,136937
1072,2277;0,135459
1073,1919;0,13399
1074,1561;0,132509
1075,1204;0,130997
1076,0846;0,129448
1077,0488;0,127868
1078,0131;0,126283
1078,9773;0,124733
1079,9415;0,123263
1080,9058;0,121915
1081,8700;0,120715
1082,8342;0,119675
1083,7985;0,118786
1084,7627;0,118026
1085,7269;0,117369
1086,6912;0,11679
1087,6554;0,116274
1088,6196;0,115815
1089,5839;0,115418
1090,5481;0,11509
1091,5123;0,114839
1092,4766;0,114664
1093,4408;0,114559
1094,4050;0,114512
1095,3693;0,114509
1096,3335;0,11454
1097,2977;0,114599
1098,2620;0,114677
1099,2262;0,114764
1100,1904;0,114845
1101,1547;0,1149
1102,1189;0,114908
1103,0831;0,11485
1104,0474;0,114709
1105,0116;0,114479
1105,9758;0,114156
1106,9401;0,113745
1107,9043;0,113248
1108,8685;0,112662
1109,8328;0,111974
1110,7970;0,111166
1111,7612;0,110221
1112,7255;0,109136
1113,6897;0,107936
1114,6539;0,106668
1115,6182;0,105392
1116,5824;0,10417
1117,5466;0,10304
1118,5109;0,102013
1119,4751;0,101069
1120,4393;0,100162
1121,4036;0,0992299
1122,3678;0,0982129
1123,3320;0,0970607
1124,2963;0,0957434
1125,2605;0,0942548
1126,2247;0,0926111
1127,1890;0,0908457
1128,1532;0,0890011
1129,1174;0,0871215
1130,0817;0,085245
1131,0459;0,0834011
1132,0101;0,0816111
1132,9744;0,0798929
1133,9386;0,0782682
1134,9028;0,0767665
1135,8671;0,075424
1136,8313;0,0742764
1137,7955;0,0733482
1138,7598;0,0726456
1139,7240;0,072156
1140,6882;0,0718541
1141,6525;0,0717117
1142,6167;0,0717036
1143,5809;0,0718102
1144,5452;0,0720154
1145,5094;0,0723049
1146,4736;0,0726661
1147,4379;0,0730896
1148,4021;0,0735688
1149,3663;0,0740971
1150,3306;0,0746633
1151,2948;0,0752483
1152,2590;0,0758255
1153,2233;0,076365
1154,1875;0,0768377
1155,1517;0,0772164
1156,1160;0,0774732
1157,0802;0,0775748
1158,0444;0,0774794
1159,0087;0,0771394
1159,9729;0,0765084
1160,9371;0,075552
1161,9014;0,0742566
1162,8656;0,0726348
1163,8298;0,0707245
1164,7941;0,068584
1165,7583;0,0662848
1166,7225;0,0639055
1167,6868;0,0615256
1168,6510;0,0592191
1169,6152;0,0570475
1170,5795;0,0550536
1171,5437;0,0532578
1172,5079;0,0516608
1173,4722;0,0502497
1174,4364;0,0490074
1175,4006;0,0479197
1176,3649;0,046977
1177,3291;0,0461717
1178,2933;0,0454938
1179,2576;0,0449281
1180,2218;0,0444547
1181,1860;0,0440534
1182,1503;0,0437096
1183,1145;0,0434172
1184,0787;0,0431795
1185,0430;0,0430056
1186,0072;0,0429064
1186,9714;0,04289
1187,9357;0,0429593
1188,8999;0,0431124
1189,8641;0,0433444
1190,8284;0,043649
1191,7926;0,0440207
1192,7568;0,0444541
1193,7211;0,0449439
1194,6853;0,0454833
1195,6495;0,0460637
1196,6138;0,0466744
1197,5780;0,0473029
1198,5422;0,0479361
1199,5065;0,0485922
1200,4707;0,0491959
1201,4349;0,0497755
1202,3992;0,05033
1203,3634;0,0508616
1204,3276;0,0513735
1205,2919;0,0518685
1206,2561;0,0523496
1207,2203;0,0528231
1208,1846;0,053302
1209,1488;0,053807
1210,1130;0,0543631
1211,0773;0,054992
1212,0415;0,0557044
1213,0057;0,0564965
1213,9700;0,0573517
1214,9342;0,0582471
1215,8984;0,0591608
1216,8627;0,0600752
1217,8269;0,060978
1218,7911;0,0618597
1219,7554;0,0627136
1220,7196;0,0635359
1221,6838;0,0643259
1222,6481;0,0650851
1223,6123;0,0658146
1224,5765;0,0665126
1225,5408;0,0671743
1226,5050;0,0677937
1227,4692;0,0683665
1228,4335;0,0688918
1229,3977;0,0693715
1230,3619;0,0698077
1231,3262;0,0702016
1232,2904;0,0705519
1233,2546;0,0708562
1234,2189;0,0711125
1235,1831;0,0713208
1236,1473;0,0714839
1237,1116;0,0716063
1238,0758;0,0716927
1239,0400;0,0717453
1240,0043;0,0717633
1240,9685;0,071743
1241,9327;0,0716799
1242,8970;0,0715711
1243,8612;0,0714161
1244,8254;0,0712162
1245,7897;0,0709723
1246,7539;0,0706851
1247,7181;0,0703553
1248,6824;0,0699869
1249,6466;0,0695874
1250,6108;0,069168
1251,5751;0,0687398
1252,5393;0,0683111
1253,5035;0,0678852
1254,4678;0,0674602
1255,4320;0,0670313
1256,3962;0,0665931
1257,3605;0,0661413
1258,3247;0,0656737
1259,2889;0,0651895
1260,2532;0,0646874
1261,2174;0,0641645
1262,1816;0,0636159
1263,1459;0,0630362
1264,1101;0,0624224
1265,0743;0,0617745
1266,0386;0,0610955
1267,0028;0,0603886
1267,9670;0,0596563
1268,9313;0,0589011
1269,8955;0,0581281
1270,8597;0,0573469
1271,8240;0,0565699
1272,7882;0,0558088
1273,7524;0,0550704
1274,7167;0,054356
1275,6809;0,0536637
1276,6451;0,0529919
1277,6094;0,0523404
1278,5736;0,0517098
1279,5378;0,0510993
1280,5021;0,0505062
1281,4663;0,0499272
1282,4305;0,0493607
1283,3948;0,0488085
1284,3590;0,0482765
1285,3232;0,0477741
1286,2875;0,0473129
1287,2517;0,046905
1288,2159;0,0465599
1289,1802;0,0462805
1290,1444;0,0460623
1291,1086;0,0458949
1292,0729;0,0457684
1293,0371;0,0456782
1294,0013;0,045628
1294,9656;0,0456272
1295,9298;0,0456861
1296,8940;0,0458105
1297,8583;0,0460007
1298,8225;0,0462522
1299,7867;0,0465592
1300,7510;0,0469152
1301,7152;0,0473139
1302,6794;0,0477498
1303,6437;0,0482187
1304,6079;0,0487183
1305,5721;0,0492475
1306,5364;0,0498036
1307,5006;0,0503806
1308,4648;0,0509699
1309,4291;0,051562
1310,3933;0,0521489
1311,3575;0,0527233
1312,3218;0,0532753
1313,2860;0,0537891
1314,2502;0,0542414
1315,2145;0,0546051
1316,1787;0,0548553
1317,1429;0,0549779
1318,1072;0,0549763
1319,0714;0,054874
1320,0356;0,0547077
1320,9999;0,0545143
1321,9641;0,054319
1322,9283;0,054133
1323,8926;0,0539584
1324,8568;0,0537956
1325,8210;0,0536469
1326,7853;0,0535151
1327,7495;0,0533988
1328,7137;0,0532901
1329,6780;0,0531759
1330,6422;0,053043
1331,6064;0,0528839
1332,5707;0,0526983
1333,5349;0,0524881
1334,4991;0,0522488
1335,4634;0,0519629
1336,4276;0,0516032
1337,3918;0,0511481
1338,3561;0,0506065
1339,3203;0,0500304
1340,2845;0,0494943
1341,2488;0,0490523
1342,2130;0,048715
1343,1772;0,0484603
1344,1415;0,0482582
1345,1057;0,0480886
1346,0699;0,0479485
1347,0342;0,047851
1347,9984;0,0478168
1348,9626;0,0478641
1349,9269;0,0479995
1350,8911;0,048215
1351,8553;0,0484925
1352,8196;0,0488137
1353,7838;0,0491684
1354,7480;0,049558
1355,7123;0,0499894
