TITLE;
DATA TYPE;INFRARED SPECTRUM
ORIGIN;JASCO
OWNER;
DATE;25/02/05
TIME;11:48:35
SPECTROMETER/DATA SYSTEM;
LOCALE;9226
RESOLUTION;
DELTAX;0,964233
XUNITS;1/CM
YUNITS;ABSORBANCE
FIRSTX;  399,1927
LASTX; 4000,6047
NPOINTS;    3736
FIRSTY;     0,13409
MAXY;     0,20016
MINY;    -0,01335
XYDATA
399,1927;0,134086
400,1569;0,131503
401,1211;0,129566
402,0854;0,128304
403,0496;0,127493
404,0138;0,126935
404,9781;0,126556
405,9423;0,126396
406,9065;0,126504
407,8708;0,126819
408,8350;0,127138
409,7992;0,127208
410,7635;0,126926
411,7277;0,126473
412,6919;0,126273
413,6562;0,126775
414,6204;0,128242
415,5846;0,130673
416,5489;0,133746
417,5131;0,136702
418,4773;0,138464
419,4416;0,138441
420,4058;0,137225
421,3700;0,135916
422,3343;0,135133
423,2985;0,134937
424,2627;0,135149
425,2270;0,135568
426,1912;0,136045
427,1554;0,136485
428,1197;0,136817
429,0839;0,136987
430,0481;0,13699
431,0124;0,136892
431,9766;0,136813
432,9408;0,136849
433,9051;0,137001
434,8693;0,13717
435,8335;0,137236
436,7978;0,137166
437,7620;0,137046
438,7262;0,137018
439,6905;0,137173
440,6547;0,137496
441,6189;0,137862
442,5832;0,138102
443,5474;0,138078
444,5116;0,137745
445,4759;0,137145
446,4401;0,136367
447,4043;0,135511
448,3686;0,134678
449,3328;0,133973
450,2970;0,133488
451,2613;0,133281
452,2255;0,133361
453,1897;0,133689
454,1540;0,134193
455,1182;0,134761
456,0824;0,135235
457,0467;0,135421
458,0109;0,135181
458,9751;0,134542
459,9394;0,133706
460,9036;0,132913
461,8678;0,13232
462,8321;0,131966
463,7963;0,131818
464,7605;0,131813
465,7248;0,131897
466,6890;0,132039
467,6532;0,13222
468,6175;0,132429
469,5817;0,132646
470,5459;0,13285
471,5102;0,133008
472,4744;0,13308
473,4386;0,13302
474,4029;0,132794
475,3671;0,132406
476,3313;0,131911
477,2956;0,131407
478,2598;0,131006
479,2240;0,130802
480,1883;0,130833
481,1525;0,13107
482,1167;0,131439
483,0810;0,131854
484,0452;0,132253
485,0094;0,132607
485,9737;0,13293
486,9379;0,133258
487,9021;0,133634
488,8664;0,134084
489,8306;0,134598
490,7948;0,135116
491,7591;0,135545
492,7233;0,135796
493,6875;0,135839
494,6518;0,135718
495,6160;0,135538
496,5802;0,135418
497,5445;0,135444
498,5087;0,135656
499,4729;0,136035
500,4372;0,136518
501,4014;0,13701
502,3656;0,137415
503,3299;0,137669
504,2941;0,137769
505,2583;0,13776
506,2226;0,13771
507,1868;0,137674
508,1510;0,137679
509,1153;0,137729
510,0795;0,137828
511,0437;0,138003
512,0080;0,138312
512,9722;0,138821
513,9365;0,139567
514,9007;0,140514
515,8649;0,141539
516,8292;0,142451
517,7934;0,143074
518,7576;0,143341
519,7219;0,143331
520,6861;0,143209
521,6503;0,143116
522,6146;0,143107
523,5788;0,143156
524,5430;0,143195
525,5073;0,143171
526,4715;0,143077
527,4357;0,142946
528,4000;0,142809
529,3642;0,142662
530,3284;0,142475
531,2927;0,142221
532,2569;0,141908
533,2211;0,141579
534,1854;0,14129
535,1496;0,141071
536,1138;0,140918
537,0781;0,140804
538,0423;0,140704
539,0065;0,14062
539,9708;0,140571
540,9350;0,140585
541,8992;0,140674
542,8635;0,140834
543,8277;0,141048
544,7919;0,141295
545,7562;0,141553
546,7204;0,141803
547,6846;0,142032
548,6489;0,142234
549,6131;0,142412
550,5773;0,14258
551,5416;0,142763
552,5058;0,142993
553,4700;0,143295
554,4343;0,143673
555,3985;0,144093
556,3627;0,144478
557,3270;0,144725
558,2912;0,144743
559,2554;0,144482
560,2197;0,143958
561,1839;0,143244
562,1481;0,142439
563,1124;0,141639
564,0766;0,140899
565,0408;0,140228
566,0051;0,139602
566,9693;0,138987
567,9335;0,138372
568,8978;0,137778
569,8620;0,137258
570,8262;0,136865
571,7905;0,136632
572,7547;0,136558
573,7189;0,136614
574,6832;0,136754
575,6474;0,136928
576,6116;0,137092
577,5759;0,137215
578,5401;0,137272
579,5043;0,137252
580,4686;0,137157
581,4328;0,137007
582,3970;0,13683
583,3613;0,136661
584,3255;0,136525
585,2897;0,136439
586,2540;0,136416
587,2182;0,13647
588,1824;0,13661
589,1467;0,13683
590,1109;0,137089
591,0751;0,137317
592,0394;0,137436
593,0036;0,1374
593,9678;0,137222
594,9321;0,136961
595,8963;0,13668
596,8605;0,136413
597,8248;0,136152
598,7890;0,135864
599,7532;0,135525
600,7175;0,135143
601,6817;0,134758
602,6459;0,134414
603,6102;0,134134
604,5744;0,133909
605,5386;0,133709
606,5029;0,133494
607,4671;0,133218
608,4313;0,132838
609,3956;0,132327
610,3598;0,131708
611,3240;0,131067
612,2883;0,130545
613,2525;0,130278
614,2167;0,130303
615,1810;0,130505
616,1452;0,130619
617,1094;0,130344
618,0737;0,129499
619,0379;0,128136
620,0021;0,126499
620,9664;0,124879
621,9306;0,123484
622,8948;0,122382
623,8591;0,121526
624,8233;0,120758
625,7875;0,120114
626,7518;0,119553
627,7160;0,119066
628,6802;0,118642
629,6445;0,118275
630,6087;0,117954
631,5729;0,117677
632,5372;0,117443
633,5014;0,117241
634,4656;0,117051
635,4299;0,116852
636,3941;0,116639
637,3583;0,116432
638,3226;0,116263
639,2868;0,116152
640,2510;0,116091
641,2153;0,116043
642,1795;0,115971
643,1437;0,115865
644,1080;0,115754
645,0722;0,115688
646,0364;0,115703
647,0007;0,115797
647,9649;0,115917
648,9291;0,115984
649,8934;0,115936
650,8576;0,115758
651,8218;0,115498
652,7861;0,115243
653,7503;0,115075
654,7145;0,115039
655,6788;0,115109
656,6430;0,115208
657,6072;0,115258
658,5715;0,115218
659,5357;0,1151
660,4999;0,11491
661,4642;0,114593
662,4284;0,113993
663,3926;0,112913
664,3569;0,111279
665,3211;0,109384
666,2853;0,108009
667,2496;0,108009
668,2138;0,109186
669,1780;0,110228
670,1423;0,110542
671,1065;0,110384
672,0707;0,109832
673,0350;0,108821
673,9992;0,107453
674,9634;0,10599
675,9277;0,104658
676,8919;0,103514
677,8561;0,102464
678,8204;0,101383
679,7846;0,100222
680,7488;0,0990115
681,7131;0,0978269
682,6773;0,0967265
683,6415;0,0957417
684,6058;0,0948818
685,5700;0,0941457
686,5342;0,0935205
687,4985;0,0929753
688,4627;0,0924779
689,4269;0,0919835
690,3912;0,0914732
691,3554;0,0909532
692,3196;0,0904373
693,2839;0,0899287
694,2481;0,0894169
695,2123;0,0888888
696,1766;0,0883421
697,1408;0,0877899
698,1050;0,0872535
699,0693;0,0867506
700,0335;0,0862872
700,9977;0,0858565
701,9620;0,0854428
702,9262;0,0850259
703,8904;0,084565
704,8547;0,0840551
705,8189;0,0835025
706,7831;0,0829293
707,7474;0,0823655
708,7116;0,0818363
709,6758;0,0813476
710,6401;0,0808783
711,6043;0,0803898
712,5685;0,0798512
713,5328;0,0792712
714,4970;0,0787092
715,4612;0,0769872
716,4255;0,076966
717,3897;0,0771908
718,3539;0,0774587
719,3182;0,0774683
720,2824;0,076969
721,2466;0,0759123
722,2109;0,0744845
723,1751;0,0729943
724,1393;0,0717071
725,1036;0,0707409
726,0678;0,0700607
727,0320;0,0695426
727,9963;0,0690573
728,9605;0,0685299
729,9247;0,0679525
730,8890;0,067359
731,8532;0,066791
732,8174;0,0662744
733,7817;0,0658145
734,7459;0,0654018
735,7101;0,0650218
736,6744;0,0646643
737,6386;0,0643268
738,6028;0,0640108
739,5671;0,0637133
740,5313;0,0634184
741,4955;0,0630979
742,4598;0,0627238
743,4240;0,0622833
744,3882;0,0617886
745,3525;0,0612704
746,3167;0,0607625
747,2809;0,0602861
748,2452;0,0598445
749,2094;0,0594293
750,1736;0,0590309
751,1379;0,058644
752,1021;0,0582676
753,0663;0,0579006
754,0306;0,0575387
754,9948;0,0571758
755,9590;0,0568073
756,9233;0,0564318
757,8875;0,0560512
758,8517;0,0556702
759,8160;0,0552943
760,7802;0,05493
761,7444;0,0545839
762,7087;0,0542618
763,6729;0,0539684
764,6371;0,0537058
765,6014;0,0534729
766,5656;0,053263
767,5298;0,0530627
768,4941;0,0528526
769,4583;0,0526134
770,4225;0,0523346
771,3868;0,0520207
772,3510;0,0516917
773,3152;0,0513747
774,2795;0,0510932
775,2437;0,0508584
776,2079;0,0506678
777,1722;0,0505093
778,1364;0,0503654
779,1006;0,0502161
780,0649;0,0500409
781,0291;0,0498226
781,9933;0,0495532
782,9576;0,0492401
783,9218;0,0489048
784,8860;0,0485746
785,8503;0,0482701
786,8145;0,0479963
787,7787;0,0477436
788,7430;0,0474979
789,7072;0,0472524
790,6714;0,047014
791,6357;0,0467996
792,5999;0,0466251
793,5641;0,0464948
794,5284;0,0463966
795,4926;0,0463055
796,4568;0,0461948
797,4211;0,0460475
798,3853;0,0458643
799,3495;0,0456632
800,3138;0,0454712
801,2780;0,045312
802,2422;0,0451948
803,2065;0,0451094
804,1707;0,0450303
805,1349;0,0449285
806,0992;0,0447837
807,0634;0,0445937
808,0276;0,0443738
808,9919;0,0441488
809,9561;0,0439407
810,9203;0,0437597
811,8846;0,0436027
812,8488;0,0434587
813,8130;0,0433167
814,7773;0,0431712
815,7415;0,0430231
816,7057;0,042876
817,6700;0,0427334
818,6342;0,0425968
819,5984;0,042467
820,5627;0,0423447
821,5269;0,0422303
822,4911;0,0421237
823,4554;0,0420245
824,4196;0,0419326
825,3839;0,0418487
826,3481;0,0417723
827,3123;0,0416989
828,2766;0,0416186
829,2408;0,0415195
830,2050;0,0413933
831,1693;0,0412408
832,1335;0,0410707
833,0977;0,0408941
834,0620;0,0407174
835,0262;0,0405404
835,9904;0,040359
836,9547;0,0401714
837,9189;0,0399814
838,8831;0,039796
839,8474;0,03962
840,8116;0,0394522
841,7758;0,0392871
842,7401;0,0391203
843,7043;0,0389538
844,6685;0,0387965
845,6328;0,0386596
846,5970;0,0385511
847,5612;0,038472
848,5255;0,038417
849,4897;0,0383778
850,4539;0,0383467
851,4182;0,0383178
852,3824;0,0382873
853,3466;0,0382529
854,3109;0,0382143
855,2751;0,0381738
856,2393;0,0381374
857,2036;0,0381122
858,1678;0,038105
859,1320;0,0381189
860,0963;0,0381532
861,0605;0,0382043
862,0247;0,0382684
862,9890;0,0383438
863,9532;0,0384317
864,9174;0,038536
865,8817;0,0386614
866,8459;0,0388123
867,8101;0,0389916
868,7744;0,0391998
869,7386;0,0394334
870,7028;0,0396842
871,6671;0,0399387
872,6313;0,0401812
873,5955;0,0403963
874,5598;0,0405728
875,5240;0,0407055
876,4882;0,0407953
877,4525;0,0408499
878,4167;0,0408844
879,3809;0,0409222
880,3452;0,040993
881,3094;0,0411276
882,2736;0,0413495
883,2379;0,0416686
884,2021;0,0420811
885,1663;0,0425758
886,1306;0,0431422
887,0948;0,0437764
888,0590;0,0444786
889,0233;0,0452459
889,9875;0,046064
890,9517;0,0469057
891,9160;0,0477355
892,8802;0,0485172
893,8444;0,0492193
894,8087;0,0498157
895,7729;0,0502816
896,7371;0,0505922
897,7014;0,0507253
898,6656;0,0506684
899,6298;0,0504259
900,5941;0,0500208
901,5583;0,0494905
902,5225;0,0488769
903,4868;0,0482183
904,4510;0,0475452
905,4152;0,046882
906,3795;0,046251
907,3437;0,045674
908,3079;0,0451691
909,2722;0,044746
910,2364;0,0444022
911,2007;0,0441257
912,1649;0,0439035
913,1292;0,0437293
914,0934;0,0436058
915,0576;0,043539
916,0219;0,0435285
916,9861;0,0435632
917,9503;0,0436246
918,9146;0,0436981
919,8788;0,0437827
920,8430;0,0438911
921,8073;0,0440397
922,7715;0,0442346
923,7357;0,0444638
924,7000;0,0447012
925,6642;0,0449202
926,6284;0,0451075
927,5927;0,0452683
928,5569;0,0454212
929,5211;0,045586
930,4854;0,0457737
931,4496;0,0459844
932,4138;0,0462115
933,3781;0,0464506
934,3423;0,0467037
935,3065;0,0469797
936,2708;0,0472883
937,2350;0,0476348
938,1992;0,0480179
939,1635;0,0484319
940,1277;0,0488731
941,0919;0,0493442
942,0562;0,0498566
943,0204;0,0504267
943,9846;0,0510703
944,9489;0,0517967
945,9131;0,0526046
946,8773;0,0534828
947,8416;0,0544132
948,8058;0,0553773
949,7700;0,0563644
950,7343;0,0573772
951,6985;0,0584324
952,6627;0,0595548
953,6270;0,0607656
954,5912;0,0620722
955,5554;0,0634638
956,5197;0,0649171
957,4839;0,0664068
958,4481;0,0679153
959,4124;0,0694353
960,3766;0,0709649
961,3408;0,0724997
962,3051;0,0740302
963,2693;0,0755457
964,2335;0,0770419
965,1978;0,0785262
966,1620;0,0800164
967,1262;0,0815334
968,0905;0,0830947
969,0547;0,084712
970,0189;0,0863967
970,9832;0,0881669
971,9474;0,0900499
972,9116;0,09208
973,8759;0,0942891
974,8401;0,0966998
975,8043;0,0993211
976,7686;0,10215
977,7328;0,105172
978,6970;0,10836
979,6613;0,11167
980,6255;0,115032
981,5897;0,118357
982,5540;0,121542
983,5182;0,124498
984,4824;0,12716
985,4467;0,129507
986,4109;0,131557
987,3751;0,133356
988,3394;0,134959
989,3036;0,136412
990,2678;0,137749
991,2321;0,138984
992,1963;0,140121
993,1605;0,141168
994,1248;0,142141
995,0890;0,143068
996,0532;0,143983
997,0175;0,144916
997,9817;0,145881
998,9459;0,146872
999,9102;0,14787
1000,8744;0,148854
1001,8386;0,149816
1002,8029;0,150768
1003,7671;0,151748
1004,7313;0,152803
1005,6956;0,153982
1006,6598;0,155326
1007,6240;0,156864
1008,5883;0,158609
1009,5525;0,160562
1010,5167;0,162709
1011,4810;0,16502
1012,4452;0,167451
1013,4094;0,169941
1014,3737;0,17243
1015,3379;0,174858
1016,3021;0,177183
1017,2664;0,179382
1018,2306;0,181449
1019,1948;0,183391
1020,1591;0,185221
1021,1233;0,186954
1022,0875;0,188602
1023,0518;0,190178
1024,0160;0,191695
1024,9802;0,193163
1025,9445;0,194584
1026,9087;0,195947
1027,8729;0,197221
1028,8372;0,198354
1029,8014;0,199275
1030,7656;0,199904
1031,7299;0,20016
1032,6941;0,199984
1033,6583;0,199345
1034,6226;0,198259
1035,5868;0,196794
1036,5510;0,195062
1037,5153;0,193212
1038,4795;0,191403
1039,4437;0,189776
1040,4080;0,188433
1041,3722;0,18742
1042,3364;0,186724
1043,3007;0,186285
1044,2649;0,186013
1045,2291;0,185811
1046,1934;0,185596
1047,1576;0,185304
1048,1218;0,184897
1049,0861;0,184352
1050,0503;0,183649
1051,0145;0,182768
1051,9788;0,181685
1052,9430;0,180385
1053,9072;0,178866
1054,8715;0,177141
1055,8357;0,175227
1056,7999;0,173122
1057,7642;0,170803
1058,7284;0,168225
1059,6926;0,165354
1060,6569;0,16219
1061,6211;0,15879
1062,5853;0,155265
1063,5496;0,151753
1064,5138;0,148381
1065,4780;0,145239
1066,4423;0,142365
1067,4065;0,139752
1068,3707;0,13737
1069,3350;0,135177
1070,2992;0,133133
1071,2634;0,131201
1072,2277;0,129346
1073,1919;0,127528
1074,1561;0,125706
1075,1204;0,123847
1076,0846;0,121935
1077,0488;0,11998
1078,0131;0,118018
1078,9773;0,116104
1079,9415;0,1143
1080,9058;0,112656
1081,8700;0,111203
1082,8342;0,109946
1083,7985;0,10887
1084,7627;0,107949
1085,7269;0,107149
1086,6912;0,106442
1087,6554;0,105805
1088,6196;0,105229
1089,5839;0,104717
1090,5481;0,104279
1091,5123;0,103933
1092,4766;0,103688
1093,4408;0,103541
1094,4050;0,103478
1095,3693;0,103481
1096,3335;0,103533
1097,2977;0,103629
1098,2620;0,103766
1099,2262;0,103942
1100,1904;0,104141
1101,1547;0,104333
1102,1189;0,10448
1103,0831;0,104549
1104,0474;0,104515
1105,0116;0,10437
1105,9758;0,104112
1106,9401;0,103743
1107,9043;0,103264
1108,8685;0,102668
1109,8328;0,101944
1110,7970;0,101074
1111,7612;0,100042
1112,7255;0,0988401
1113,6897;0,0974855
1114,6539;0,0960239
1115,6182;0,0945261
1116,5824;0,0930702
1117,5466;0,0917182
1118,5109;0,0904974
1119,4751;0,089394
1120,4393;0,0883599
1121,4036;0,0873282
1122,3678;0,086229
1123,3320;0,0850028
1124,2963;0,0836084
1125,2605;0,0820285
1126,2247;0,0802727
1127,1890;0,0783753
1128,1532;0,0763877
1129,1174;0,0743662
1130,0817;0,0723599
1131,0459;0,0704043
1132,0101;0,0685226
1132,9744;0,0667335
1133,9386;0,0650589
1134,9028;0,0635274
1135,8671;0,0621715
1136,8313;0,0610201
1137,7955;0,0600912
1138,7598;0,0593889
1139,7240;0,0589044
1140,6882;0,05862
1141,6525;0,0585136
1142,6167;0,0585615
1143,5809;0,058741
1144,5452;0,0590311
1145,5094;0,0594142
1146,4736;0,0598765
1147,4379;0,0604085
1148,4021;0,0610026
1149,3663;0,061651
1150,3306;0,0623426
1151,2948;0,063062
1152,2590;0,0637886
1153,2233;0,0644973
1154,1875;0,0651594
1155,1517;0,0657421
1156,1160;0,0662078
1157,0802;0,0665123
1158,0444;0,0666042
1159,0087;0,0664262
1159,9729;0,06592
1160,9371;0,0650355
1161,9014;0,0637426
1162,8656;0,0620419
1163,8298;0,0599712
1164,7941;0,0576031
1165,7583;0,055036
1166,7225;0,0523791
1167,6868;0,0497368
1168,6510;0,0471956
1169,6152;0,0448158
1170,5795;0,0426302
1171,5437;0,0406487
1172,5079;0,0388663
1173,4722;0,0372729
1174,4364;0,0358581
1175,4006;0,0346135
1176,3649;0,03353
1177,3291;0,0325952
1178,2933;0,0317933
1179,2576;0,0311079
1180,2218;0,0305252
1181,1860;0,030037
1182,1503;0,0296389
1183,1145;0,0293277
1184,0787;0,0290983
1185,0430;0,0289439
1186,0072;0,0288588
1186,9714;0,0288411
1187,9357;0,0288938
1188,8999;0,0290235
1189,8641;0,0292366
1190,8284;0,0295367
1191,7926;0,0299228
1192,7568;0,0303904
1193,7211;0,0309314
1194,6853;0,0315342
1195,6495;0,032183
1196,6138;0,032858
1197,5780;0,0335374
1198,5422;0,0342019
1199,5065;0,0345394
1200,4707;0,0351802
1201,4349;0,0357953
1202,3992;0,0363904
1203,3634;0,0369709
1204,3276;0,0375393
1205,2919;0,0380954
1206,2561;0,0386403
1207,2203;0,03918
1208,1846;0,0397273
1209,1488;0,0403009
1210,1130;0,0409203
1211,0773;0,0416002
1212,0415;0,0423464
1213,0057;0,0431552
1213,9700;0,0440165
1214,9342;0,0449177
1215,8984;0,0458481
1216,8627;0,046797
1217,8269;0,0477524
1218,7911;0,0487035
1219,7554;0,0496389
1220,7196;0,0505474
1221,6838;0,0514195
1222,6481;0,0522486
1223,6123;0,0530319
1224,5765;0,05377
1225,5408;0,054467
1226,5050;0,0551289
1227,4692;0,0557605
1228,4335;0,0563633
1229,3977;0,0569334
1230,3619;0,0574624
1231,3262;0,0579399
1232,2904;0,0583575
1233,2546;0,0587115
1234,2189;0,0590038
1235,1831;0,0592412
1236,1473;0,0594329
1237,1116;0,0595881
1238,0758;0,0597139
1239,0400;0,0598131
1240,0043;0,0598843
1240,9685;0,0599208
1241,9327;0,0599129
1242,8970;0,0598501
1243,8612;0,059723
1244,8254;0,0595258
1245,7897;0,0592571
1246,7539;0,0589213
1247,7181;0,0585281
1248,6824;0,058092
1249,6466;0,0576291
1250,6108;0,0571535
1251,5751;0,056675
1252,5393;0,0561987
1253,5035;0,0557268
1254,4678;0,0552593
1255,4320;0,0547938
1256,3962;0,0543226
1257,3605;0,0538327
1258,3247;0,0533086
1259,2889;0,052739
1260,2532;0,0521233
1261,2174;0,051472
1262,1816;0,0508013
1263,1459;0,0501244
1264,1101;0,0494457
1265,0743;0,0487615
1266,0386;0,0480636
1267,0028;0,0473438
1267,9670;0,0465954
1268,9313;0,0458126
1269,8955;0,0449911
1270,8597;0,0441306
1271,8240;0,0432381
1272,7882;0,0423301
1273,7524;0,0414298
1274,7167;0,0405623
1275,6809;0,0397483
1276,6451;0,0389992
1277,6094;0,0383152
1278,5736;0,0376855
1279,5378;0,0370937
1280,5021;0,0365246
1281,4663;0,0359709
1282,4305;0,035436
1283,3948;0,0349305
1284,3590;0,0344655
1285,3232;0,0340456
1286,2875;0,0336672
1287,2517;0,0333213
1288,2159;0,0330004
1289,1802;0,0327045
1290,1444;0,0324425
1291,1086;0,0322285
1292,0729;0,0320761
1293,0371;0,0319934
1294,0013;0,0319817
1294,9656;0,032036
1295,9298;0,0321483
1296,8940;0,0323108
1297,8583;0,0325191
1298,8225;0,0327734
1299,7867;0,0330777
1300,7510;0,0334362
1301,7152;0,0338536
1302,6794;0,034328
1303,6437;0,0348512
1304,6079;0,0354139
1305,5721;0,0360085
1306,5364;0,0366318
1307,5006;0,0372859
1308,4648;0,0379742
1309,4291;0,0386942
1310,3933;0,0394334
1311,3575;0,0401678
1312,3218;0,0408677
1313,2860;0,0415054
1314,2502;0,0420601
1315,2145;0,0425133
1316,1787;0,0428417
1317,1429;0,043015
1318,1072;0,043008
1319,0714;0,0428217
1320,0356;0,0424967
1320,9999;0,0421028
1321,9641;0,0417109
1322,9283;0,0413672
1323,8926;0,0410874
1324,8568;0,0408659
1325,8210;0,0406898
1326,7853;0,0405491
1327,7495;0,0404362
1328,7137;0,0403429
1329,6780;0,0402563
1330,6422;0,0401635
1331,6064;0,0400616
1332,5707;0,0399615
1333,5349;0,0398882
1334,4991;0,0398628
1335,4634;0,0398814
1336,4276;0,0398946
1337,3918;0,0398003
1338,3561;0,0394761
1339,3203;0,038861
1340,2845;0,0380273
1341,2488;0,0371469
1342,2130;0,0363793
1343,1772;0,0357989
1344,1415;0,0354028
1345,1057;0,0351533
1346,0699;0,0350099
1347,0342;0,0349435
1347,9984;0,0349433
1348,9626;0,0350149
1349,9269;0,0351704
1350,8911;0,0354153
1351,8553;0,035741
1352,8196;0,0361267
1353,7838;0,0365503
1354,7480;0,0370007
1355,7123;0,0374835
