TITLE;
DATA TYPE;INFRARED SPECTRUM
ORIGIN;JASCO
OWNER;
DATE;25/03/26
TIME;16:44:04
SPECTROMETER/DATA SYSTEM;
LOCALE;9226
RESOLUTION;
DELTAX;0,964233
XUNITS;1/CM
YUNITS;ABSORBANCE
FIRSTX;  399,1927
LASTX; 4000,6047
NPOINTS;    3736
FIRSTY;     0,18871
MAXY;     0,26799
MINY;     0,01467
XYDATA
399,1927;0,188711
400,1569;0,188514
401,1211;0,189104
402,0854;0,189887
403,0496;0,190429
404,0138;0,190612
404,9781;0,190579
405,9423;0,19058
406,9065;0,190785
407,8708;0,191179
408,8350;0,191626
409,7992;0,192024
410,7635;0,192411
411,7277;0,192926
412,6919;0,193663
413,6562;0,194582
414,6204;0,195537
415,5846;0,19637
416,5489;0,196982
417,5131;0,19738
418,4773;0,197701
419,4416;0,198132
420,4058;0,198746
421,3700;0,199476
422,3343;0,200237
423,2985;0,200984
424,2627;0,201683
425,2270;0,202284
426,1912;0,202731
427,1554;0,202998
428,1197;0,203109
429,0839;0,203125
430,0481;0,203113
431,0124;0,20312
431,9766;0,203168
432,9408;0,20326
433,9051;0,203379
434,8693;0,203488
435,8335;0,203528
436,7978;0,203441
437,7620;0,2032
438,7262;0,202835
439,6905;0,202424
440,6547;0,202061
441,6189;0,201816
442,5832;0,201697
443,5474;0,201645
444,5116;0,201561
445,4759;0,201359
446,4401;0,201
447,4043;0,200486
448,3686;0,199847
449,3328;0,199125
450,2970;0,198373
451,2613;0,197645
452,2255;0,196987
453,1897;0,196423
454,1540;0,195971
455,1182;0,195663
456,0824;0,195549
457,0467;0,195675
458,0109;0,196006
458,9751;0,196387
459,9394;0,196593
460,9036;0,196449
461,8678;0,195903
462,8321;0,19503
463,7963;0,194022
464,7605;0,193144
465,7248;0,192642
466,6890;0,192619
467,6532;0,192964
468,6175;0,193397
469,5817;0,193605
470,5459;0,193398
471,5102;0,192826
472,4744;0,192187
473,4386;0,191841
474,4029;0,19197
475,3671;0,192494
476,3313;0,193179
477,2956;0,193794
478,2598;0,19421
479,2240;0,194411
480,1883;0,194452
481,1525;0,194415
482,1167;0,194383
483,0810;0,194431
484,0452;0,194621
485,0094;0,194975
485,9737;0,195449
486,9379;0,195938
487,9021;0,196333
488,8664;0,196562
489,8306;0,196623
490,7948;0,196572
491,7591;0,196491
492,7233;0,196449
493,6875;0,196474
494,6518;0,196568
495,6160;0,196726
496,5802;0,196959
497,5445;0,197287
498,5087;0,197724
499,4729;0,198263
500,4372;0,198855
501,4014;0,19942
502,3656;0,19987
503,3299;0,200159
504,2941;0,200303
505,2583;0,200379
506,2226;0,200481
507,1868;0,200681
508,1510;0,200998
509,1153;0,201408
510,0795;0,201867
511,0437;0,202341
512,0080;0,202828
512,9722;0,203347
513,9365;0,203917
514,9007;0,204547
515,8649;0,205224
516,8292;0,205906
517,7934;0,206529
518,7576;0,207017
519,7219;0,207312
520,6861;0,207401
521,6503;0,207317
522,6146;0,207127
523,5788;0,206909
524,5430;0,20673
525,5073;0,206622
526,4715;0,206566
527,4357;0,20652
528,4000;0,206447
529,3642;0,206344
530,3284;0,206239
531,2927;0,206154
532,2569;0,206081
533,2211;0,205971
534,1854;0,205756
535,1496;0,20539
536,1138;0,204893
537,0781;0,20435
538,0423;0,203882
539,0065;0,203584
539,9708;0,203491
540,9350;0,203567
541,8992;0,203747
542,8635;0,203979
543,8277;0,204254
544,7919;0,204588
545,7562;0,204994
546,7204;0,205446
547,6846;0,20588
548,6489;0,206233
549,6131;0,206481
550,5773;0,206665
551,5416;0,206866
552,5058;0,207164
553,4700;0,207591
554,4343;0,208115
555,3985;0,208641
556,3627;0,209042
557,3270;0,209198
558,2912;0,209028
559,2554;0,208514
560,2197;0,207701
561,1839;0,206693
562,1481;0,20562
563,1124;0,204606
564,0766;0,20373
565,0408;0,203009
566,0051;0,202408
566,9693;0,201863
567,9335;0,201324
568,8978;0,200769
569,8620;0,200212
570,8262;0,199687
571,7905;0,199226
572,7547;0,198852
573,7189;0,198574
574,6832;0,198392
575,6474;0,198295
576,6116;0,198263
577,5759;0,198266
578,5401;0,198271
579,5043;0,198252
580,4686;0,19819
581,4328;0,198075
582,3970;0,1979
583,3613;0,197664
584,3255;0,197378
585,2897;0,19707
586,2540;0,196786
587,2182;0,196576
588,1824;0,196471
589,1467;0,196473
590,1109;0,196543
591,0751;0,196615
592,0394;0,196623
593,0036;0,196531
593,9678;0,196343
594,9321;0,196089
595,8963;0,195799
596,8605;0,195483
597,8248;0,195127
598,7890;0,194708
599,7532;0,194212
600,7175;0,193646
601,6817;0,193041
602,6459;0,192436
603,6102;0,191867
604,5744;0,191352
605,5386;0,190881
606,5029;0,190418
607,4671;0,189906
608,4313;0,189288
609,3956;0,188537
610,3598;0,18768
611,3240;0,186793
612,2883;0,185976
613,2525;0,185303
614,2167;0,184777
615,1810;0,184315
616,1452;0,18377
617,1094;0,182994
618,0737;0,181909
619,0379;0,180546
620,0021;0,179017
620,9664;0,177449
621,9306;0,175942
622,8948;0,174555
623,8591;0,173324
624,8233;0,172254
625,7875;0,171376
626,7518;0,17067
627,7160;0,170089
628,6802;0,169572
629,6445;0,169063
630,6087;0,168529
631,5729;0,167967
632,5372;0,167393
633,5014;0,166825
634,4656;0,166273
635,4299;0,165734
636,3941;0,165203
637,3583;0,164681
638,3226;0,164179
639,2868;0,163714
640,2510;0,163301
641,2153;0,162949
642,1795;0,16266
643,1437;0,162426
644,1080;0,162236
645,0722;0,162069
646,0364;0,161897
647,0007;0,161686
647,9649;0,161408
648,9291;0,161057
649,8934;0,160661
650,8576;0,16028
651,8218;0,159983
652,7861;0,159824
653,7503;0,159821
654,7145;0,159949
655,6788;0,16016
656,6430;0,160398
657,6072;0,16062
658,5715;0,160796
659,5357;0,160884
660,4999;0,160826
661,4642;0,160569
662,4284;0,160104
663,3926;0,159468
664,3569;0,158749
665,3211;0,158093
666,2853;0,157703
667,2496;0,157671
668,2138;0,15767
669,1780;0,157124
670,1423;0,155952
671,1065;0,154474
672,0707;0,15286
673,0350;0,15111
673,9992;0,149226
674,9634;0,147267
675,9277;0,145334
676,8919;0,14351
677,8561;0,141824
678,8204;0,140271
679,7846;0,138855
680,7488;0,137606
681,7131;0,136557
682,6773;0,135704
683,6415;0,134997
684,6058;0,134358
685,5700;0,133722
686,5342;0,133053
687,4985;0,132344
688,4627;0,131615
689,4269;0,130889
690,3912;0,130196
691,3554;0,129562
692,3196;0,129003
693,2839;0,128517
694,2481;0,128085
695,2123;0,127683
696,1766;0,127281
697,1408;0,126856
698,1050;0,126383
699,0693;0,125845
700,0335;0,125233
700,9977;0,124556
701,9620;0,123842
702,9262;0,123136
703,8904;0,122474
704,8547;0,121875
705,8189;0,12133
706,7831;0,120808
707,7474;0,120276
708,7116;0,119721
709,6758;0,119147
710,6401;0,118567
711,6043;0,117986
712,5685;0,117395
713,5328;0,116786
714,4970;0,116168
715,4612;0,115324
716,4255;0,114832
717,3897;0,114412
718,3539;0,114004
719,3182;0,113503
720,2824;0,112818
721,2466;0,111923
722,2109;0,110882
723,1751;0,109799
724,1393;0,108765
725,1036;0,107823
726,0678;0,106969
727,0320;0,106174
727,9963;0,105412
728,9605;0,104668
729,9247;0,103936
730,8890;0,103217
731,8532;0,102508
732,8174;0,101816
733,7817;0,101157
734,7459;0,100555
735,7101;0,10003
736,6744;0,0995884
737,6386;0,0992126
738,6028;0,0988664
739,5671;0,0985087
740,5313;0,0981094
741,4955;0,0976602
742,4598;0,0971724
743,4240;0,0966662
744,3882;0,0961579
745,3525;0,0956539
746,3167;0,095153
747,2809;0,0946537
748,2452;0,0941603
749,2094;0,0936808
750,1736;0,0932215
751,1379;0,092781
752,1021;0,0923503
753,0663;0,0919173
754,0306;0,0914736
754,9948;0,0910176
755,9590;0,0905537
756,9233;0,0900872
757,8875;0,0896207
758,8517;0,0891534
759,8160;0,0886833
760,7802;0,0882128
761,7444;0,087751
762,7087;0,0873118
763,6729;0,0869078
764,6371;0,0865414
765,6014;0,0862009
766,5656;0,0858641
767,5298;0,0855085
768,4941;0,0851236
769,4583;0,0847163
770,4225;0,0843073
771,3868;0,0839214
772,3510;0,0835775
773,3152;0,0832834
774,2795;0,0830363
775,2437;0,0828257
776,2079;0,0826366
777,1722;0,0824509
778,1364;0,0822507
779,1006;0,0820224
780,0649;0,0817605
781,0291;0,0814666
781,9933;0,0811443
782,9576;0,0807934
783,9218;0,080408
784,8860;0,0799828
785,8503;0,079523
786,8145;0,0790514
787,7787;0,0786049
788,7430;0,0782214
789,7072;0,0779236
790,6714;0,0777087
791,6357;0,0775512
792,5999;0,0774153
793,5641;0,077271
794,5284;0,0771046
795,4926;0,076919
796,4568;0,0767266
797,4211;0,0765405
798,3853;0,0763678
799,3495;0,0762084
800,3138;0,076057
801,2780;0,0759069
802,2422;0,0757523
803,2065;0,0755913
804,1707;0,0754265
805,1349;0,0752649
806,0992;0,0751149
807,0634;0,0749818
808,0276;0,074864
808,9919;0,0747522
809,9561;0,0746342
810,9203;0,0745017
811,8846;0,0743555
812,8488;0,0742047
813,8130;0,0740606
814,7773;0,0739282
815,7415;0,0738025
816,7057;0,0736723
817,6700;0,0735296
818,6342;0,0733782
819,5984;0,0732339
820,5627;0,0731165
821,5269;0,0730379
822,4911;0,0729949
823,4554;0,0729711
824,4196;0,0729479
825,3839;0,0729157
826,3481;0,0728772
827,3123;0,072842
828,2766;0,0728147
829,2408;0,0727872
830,2050;0,0727392
831,1693;0,0726473
832,1335;0,0724973
833,0977;0,0722905
834,0620;0,072042
835,0262;0,0717734
835,9904;0,0715037
836,9547;0,0712461
837,9189;0,071008
838,8831;0,0707929
839,8474;0,0706017
840,8116;0,0704308
841,7758;0,0702709
842,7401;0,0701092
843,7043;0,069934
844,6685;0,0697405
845,6328;0,0695331
846,5970;0,0693239
847,5612;0,0691279
848,5255;0,0689577
849,4897;0,0688216
850,4539;0,0687225
851,4182;0,0686582
852,3824;0,0686201
853,3466;0,0685932
854,3109;0,0685585
855,2751;0,0685009
856,2393;0,0684172
857,2036;0,0683223
858,1678;0,0682454
859,1320;0,0682184
860,0963;0,0682616
861,0605;0,068373
862,0247;0,0685299
862,9890;0,068699
863,9532;0,0688518
864,9174;0,0689758
865,8817;0,0690771
866,8459;0,0691758
867,8101;0,0692955
868,7744;0,0694544
869,7386;0,0696583
870,7028;0,0698993
871,6671;0,0701582
872,6313;0,0704111
873,5955;0,070638
874,5598;0,0708301
875,5240;0,0709917
876,4882;0,0711371
877,4525;0,0712835
878,4167;0,0714448
879,3809;0,0716312
880,3452;0,0718525
881,3094;0,0721228
882,2736;0,0724617
883,2379;0,0728893
884,2021;0,0734191
885,1663;0,074053
886,1306;0,0747819
887,0948;0,0755915
888,0590;0,0764697
889,0233;0,0774082
889,9875;0,0784
890,9517;0,0794313
891,9160;0,0804738
892,8802;0,0814819
893,8444;0,0823973
894,8087;0,0831589
895,7729;0,0837158
896,7371;0,0840391
897,7014;0,084126
898,6656;0,0839977
899,6298;0,083689
900,5941;0,0832363
901,5583;0,0826699
902,5225;0,0820127
903,4868;0,0812857
904,4510;0,0805157
905,4152;0,0797397
906,3795;0,0790013
907,3437;0,0783426
908,3079;0,0777931
909,2722;0,077364
910,2364;0,0770487
911,2007;0,0768302
912,1649;0,0766914
913,1292;0,0766217
914,0934;0,0766193
915,0576;0,0766862
916,0219;0,0768209
916,9861;0,0770131
917,9503;0,0772447
918,9146;0,0774953
919,8788;0,0777509
920,8430;0,0780081
921,8073;0,0782718
922,7715;0,0785482
923,7357;0,0788364
924,7000;0,079126
925,6642;0,0794004
926,6284;0,0796438
927,5927;0,079848
928,5569;0,0800143
929,5211;0,0801524
930,4854;0,0802776
931,4496;0,080408
932,4138;0,0805621
933,3781;0,0807559
934,3423;0,0809996
935,3065;0,0812964
936,2708;0,0816432
937,2350;0,0820361
938,1992;0,0824742
939,1635;0,0829628
940,1277;0,0835114
941,0919;0,0841302
942,0562;0,0848267
943,0204;0,0856042
943,9846;0,0864623
944,9489;0,0873975
945,9131;0,0884046
946,8773;0,0894779
947,8416;0,0906139
948,8058;0,0918141
949,7700;0,0930853
950,7343;0,0944388
951,6985;0,0958863
952,6627;0,097437
953,6270;0,0990956
954,5912;0,10086
955,5554;0,102719
956,5197;0,104655
957,4839;0,106642
958,4481;0,108654
959,4124;0,110676
960,3766;0,112706
961,3408;0,114754
962,3051;0,116831
963,2693;0,11894
964,2335;0,121074
965,1978;0,123223
966,1620;0,125383
967,1262;0,127565
968,0905;0,129796
969,0547;0,132113
970,0189;0,134554
970,9832;0,13715
971,9474;0,139931
972,9116;0,142919
973,8759;0,146131
974,8401;0,149581
975,8043;0,153273
976,7686;0,157201
977,7328;0,161349
978,6970;0,165686
979,6613;0,170151
980,6255;0,174655
981,5897;0,17908
982,5540;0,183297
983,5182;0,187192
984,4824;0,190687
985,4467;0,193759
986,4109;0,196433
987,3751;0,198766
988,3394;0,200819
989,3036;0,202639
990,2678;0,204245
991,2321;0,205642
992,1963;0,206831
993,1605;0,207826
994,1248;0,208665
995,0890;0,209402
996,0532;0,210093
997,0175;0,210788
997,9817;0,211515
998,9459;0,212289
999,9102;0,213118
1000,8744;0,214016
1001,8386;0,215009
1002,8029;0,216131
1003,7671;0,217417
1004,7313;0,218897
1005,6956;0,220589
1006,6598;0,222508
1007,6240;0,224662
1008,5883;0,227061
1009,5525;0,229709
1010,5167;0,232593
1011,4810;0,235675
1012,4452;0,238886
1013,4094;0,242133
1014,3737;0,245315
1015,3379;0,24834
1016,3021;0,251131
1017,2664;0,25364
1018,2306;0,255839
1019,1948;0,257727
1020,1591;0,259329
1021,1233;0,260694
1022,0875;0,261886
1023,0518;0,262968
1024,0160;0,263984
1024,9802;0,264948
1025,9445;0,265846
1026,9087;0,266643
1027,8729;0,267296
1028,8372;0,26776
1029,8014;0,267988
1030,7656;0,267922
1031,7299;0,267505
1032,6941;0,266685
1033,6583;0,265439
1034,6226;0,263792
1035,5868;0,261822
1036,5510;0,259652
1037,5153;0,257429
1038,4795;0,255297
1039,4437;0,253375
1040,4080;0,251738
1041,3722;0,250412
1042,3364;0,249371
1043,3007;0,248544
1044,2649;0,24783
1045,2291;0,247125
1046,1934;0,246338
1047,1576;0,245409
1048,1218;0,244307
1049,0861;0,243017
1050,0503;0,241529
1051,0145;0,239825
1051,9788;0,237891
1052,9430;0,235731
1053,9072;0,233369
1054,8715;0,230847
1055,8357;0,228199
1056,7999;0,225431
1057,7642;0,222514
1058,7284;0,219399
1059,6926;0,216053
1060,6569;0,212491
1061,6211;0,208787
1062,5853;0,205056
1063,5496;0,201422
1064,5138;0,197981
1065,4780;0,194781
1066,4423;0,191829
1067,4065;0,1891
1068,3707;0,186562
1069,3350;0,184181
1070,2992;0,181922
1071,2634;0,179746
1072,2277;0,177608
1073,1919;0,17546
1074,1561;0,173265
1075,1204;0,171001
1076,0846;0,168674
1077,0488;0,16631
1078,0131;0,163949
1078,9773;0,161643
1079,9415;0,159442
1080,9058;0,157392
1081,8700;0,15553
1082,8342;0,15388
1083,7985;0,152445
1084,7627;0,151209
1085,7269;0,150141
1086,6912;0,149203
1087,6554;0,148367
1088,6196;0,147619
1089,5839;0,146964
1090,5481;0,146414
1091,5123;0,14598
1092,4766;0,145656
1093,4408;0,145427
1094,4050;0,145266
1095,3693;0,145151
1096,3335;0,145067
1097,2977;0,145011
1098,2620;0,144981
1099,2262;0,144972
1100,1904;0,14497
1101,1547;0,144948
1102,1189;0,144877
1103,0831;0,144733
1104,0474;0,144501
1105,0116;0,144177
1105,9758;0,143766
1106,9401;0,143271
1107,9043;0,142689
1108,8685;0,142009
1109,8328;0,141213
1110,7970;0,14028
1111,7612;0,139197
1112,7255;0,13797
1113,6897;0,136626
1114,6539;0,135215
1115,6182;0,133802
1116,5824;0,132448
1117,5466;0,13119
1118,5109;0,130036
1119,4751;0,128953
1120,4393;0,127884
1121,4036;0,126758
1122,3678;0,125506
1123,3320;0,124074
1124,2963;0,122427
1125,2605;0,120554
1126,2247;0,118468
1127,1890;0,116205
1128,1532;0,113817
1129,1174;0,111364
1130,0817;0,108901
1131,0459;0,106472
1132,0101;0,104111
1132,9744;0,101845
1133,9386;0,0997054
1134,9028;0,0977299
1135,8671;0,0959608
1136,8313;0,0944373
1137,7955;0,0931865
1138,7598;0,0922169
1139,7240;0,0915186
1140,6882;0,0910671
1141,6525;0,0908303
1142,6167;0,0907743
1143,5809;0,090867
1144,5452;0,0910817
1145,5094;0,0913983
1146,4736;0,0918047
1147,4379;0,0922953
1148,4021;0,0928672
1149,3663;0,0935142
1150,3306;0,09422
1151,2948;0,0949548
1152,2590;0,0956767
1153,2233;0,0963366
1154,1875;0,096885
1155,1517;0,097276
1156,1160;0,0974681
1157,0802;0,0974212
1158,0444;0,0970927
1159,0087;0,096437
1159,9729;0,095409
1160,9371;0,0939737
1161,9014;0,0921168
1162,8656;0,0898547
1163,8298;0,0872383
1164,7941;0,0843501
1165,7583;0,0812943
1166,7225;0,0781828
1167,6868;0,0751213
1168,6510;0,0721986
1169,6152;0,0694788
1170,5795;0,0669999
1171,5437;0,0647752
1172,5079;0,0627998
1173,4722;0,0610571
1174,4364;0,0595269
1175,4006;0,0581905
1176,3649;0,0570336
1177,3291;0,0560442
1178,2933;0,0552097
1179,2576;0,0545135
1180,2218;0,0539363
1181,1860;0,0534584
1182,1503;0,0530657
1183,1145;0,0527512
1184,0787;0,0525146
1185,0430;0,0523584
1186,0072;0,0522853
1186,9714;0,0522968
1187,9357;0,0523955
1188,8999;0,0525857
1189,8641;0,0528735
1190,8284;0,053263
1191,7926;0,0537535
1192,7568;0,0543382
1193,7211;0,055004
1194,6853;0,0557343
1195,6495;0,0565105
1196,6138;0,0573135
1197,5780;0,0581256
1198,5422;0,058933
1199,5065;0,059651
1200,4707;0,0604409
1201,4349;0,0612207
1202,3992;0,061994
1203,3634;0,062762
1204,3276;0,0635225
1205,2919;0,0642724
1206,2561;0,0650112
1207,2203;0,0657452
1208,1846;0,0664886
1209,1488;0,0672624
1210,1130;0,06809
1211,0773;0,0689924
1212,0415;0,0699823
1213,0057;0,0710611
1213,9700;0,0722183
1214,9342;0,0734339
1215,8984;0,0746824
1216,8627;0,0759359
1217,8269;0,0771677
1218,7911;0,078357
1219,7554;0,079491
1220,7196;0,0805666
1221,6838;0,0815878
1222,6481;0,0825618
1223,6123;0,0834937
1224,5765;0,0843832
1225,5408;0,0852253
1226,5050;0,0860133
1227,4692;0,0867425
1228,4335;0,0874119
1229,3977;0,0880222
1230,3619;0,088574
1231,3262;0,0890654
1232,2904;0,0894924
1233,2546;0,089851
1234,2189;0,0901402
1235,1831;0,0903639
1236,1473;0,0905304
1237,1116;0,0906503
1238,0758;0,0907324
1239,0400;0,0907804
1240,0043;0,0907911
1240,9685;0,0907562
1241,9327;0,0906657
1242,8970;0,0905122
1243,8612;0,0902929
1244,8254;0,0900101
1245,7897;0,0896686
1246,7539;0,0892748
1247,7181;0,0888358
1248,6824;0,0883594
1249,6466;0,0878541
1250,6108;0,0873288
1251,5751;0,086792
1252,5393;0,0862513
1253,5035;0,085713
1254,4678;0,0851805
1255,4320;0,084652
1256,3962;0,084119
1257,3605;0,0835678
1258,3247;0,0829834
1259,2889;0,0823548
1260,2532;0,0816791
1261,2174;0,0809598
1262,1816;0,0802034
1263,1459;0,079414
1264,1101;0,0785929
1265,0743;0,0777389
1266,0386;0,0768508
1267,0028;0,0759272
1267,9670;0,0749662
1268,9313;0,0739659
1269,8955;0,0729271
1270,8597;0,0718571
1271,8240;0,0707697
1272,7882;0,069683
1273,7524;0,0686132
1274,7167;0,0675717
1275,6809;0,0665641
1276,6451;0,0655923
1277,6094;0,0646569
1278,5736;0,0637575
1279,5378;0,0628923
1280,5021;0,0620586
1281,4663;0,0612552
1282,4305;0,0604851
1283,3948;0,0597563
1284,3590;0,0590808
1285,3232;0,0584708
1286,2875;0,0579351
1287,2517;0,057477
1288,2159;0,0570954
1289,1802;0,0567869
1290,1444;0,0565502
1291,1086;0,0563873
1292,0729;0,0563039
1293,0371;0,056306
1294,0013;0,0563957
1294,9656;0,0565694
1295,9298;0,0568175
1296,8940;0,0571288
1297,8583;0,0574946
1298,8225;0,057911
1299,7867;0,0583777
1300,7510;0,0588946
1301,7152;0,0594602
1302,6794;0,0600714
1303,6437;0,0607252
1304,6079;0,0614209
1305,5721;0,0621579
1306,5364;0,0629341
1307,5006;0,063744
1308,4648;0,0645799
1309,4291;0,0654329
1310,3933;0,0662926
1311,3575;0,0671441
1312,3218;0,0679662
1313,2860;0,0687325
1314,2502;0,0694148
1315,2145;0,0699861
1316,1787;0,0704212
1317,1429;0,0706973
1318,1072;0,0708017
1319,0714;0,0707421
1320,0356;0,0705533
1320,9999;0,0702887
1321,9641;0,0700018
1322,9283;0,0697295
1323,8926;0,0694875
1324,8568;0,0692758
1325,8210;0,0690874
1326,7853;0,0689148
1327,7495;0,0687514
1328,7137;0,0685881
1329,6780;0,068411
1330,6422;0,0682029
1331,6064;0,0679501
1332,5707;0,0676488
1333,5349;0,0673071
1334,4991;0,0669368
1335,4634;0,0665412
1336,4276;0,0661068
1337,3918;0,0656043
1338,3561;0,065008
1339,3203;0,0643261
1340,2845;0,0636146
1341,2488;0,0629492
1342,2130;0,0623836
1343,1772;0,061933
1344,1415;0,0615885
1345,1057;0,0613353
1346,0699;0,0611636
1347,0342;0,0610704
1347,9984;0,0610582
1348,9626;0,0611316
1349,9269;0,0612925
1350,8911;0,0615374
1351,8553;0,0618568
1352,8196;0,0622396
1353,7838;0,0626772
1354,7480;0,0631657
1355,7123;0,0637042
1356,6765;0,0642913
1357,6407;0,0649243
1358,6050;0,0656004
1359,5692;0,0663144
1360,5334;0,067048
