TITLE;
DATA TYPE;INFRARED SPECTRUM
ORIGIN;JASCO
OWNER;
DATE;25/03/26
TIME;17:35:57
SPECTROMETER/DATA SYSTEM;
LOCALE;9226
RESOLUTION;
DELTAX;0,964233
XUNITS;1/CM
YUNITS;ABSORBANCE
FIRSTX;  399,1927
LASTX; 4000,6047
NPOINTS;    3736
FIRSTY;     0,15330
MAXY;     0,24557
MINY;     0,01234
XYDATA
399,1927;0,153301
400,1569;0,153729
401,1211;0,155374
402,0854;0,157295
403,0496;0,158829
404,0138;0,159694
404,9781;0,159924
405,9423;0,159743
406,9065;0,15939
407,8708;0,158965
408,8350;0,158415
409,7992;0,157689
410,7635;0,156931
411,7277;0,156515
412,6919;0,156851
413,6562;0,158119
414,6204;0,160167
415,5846;0,162565
416,5489;0,164672
417,5131;0,165745
418,4773;0,165372
419,4416;0,164088
420,4058;0,163062
421,3700;0,16294
422,3343;0,163561
423,2985;0,164458
424,2627;0,165254
425,2270;0,165784
426,1912;0,16608
427,1554;0,166274
428,1197;0,166478
429,0839;0,166727
430,0481;0,167007
431,0124;0,167304
431,9766;0,167626
432,9408;0,167983
433,9051;0,168348
434,8693;0,168647
435,8335;0,168805
436,7978;0,168803
437,7620;0,168713
438,7262;0,168657
439,6905;0,168746
440,6547;0,169022
441,6189;0,169421
442,5832;0,169779
443,5474;0,169885
444,5116;0,169595
445,4759;0,168906
446,4401;0,167952
447,4043;0,166923
448,3686;0,16599
449,3328;0,16526
450,2970;0,164786
451,2613;0,164579
452,2255;0,164637
453,1897;0,164933
454,1540;0,165405
455,1182;0,16593
456,0824;0,166341
457,0467;0,166491
458,0109;0,166367
458,9751;0,166134
459,9394;0,166011
460,9036;0,166102
461,8678;0,166335
462,8321;0,166545
463,7963;0,166582
464,7605;0,166418
465,7248;0,16616
466,6890;0,16598
467,6532;0,16598
468,6175;0,166109
469,5817;0,166192
470,5459;0,166042
471,5102;0,165602
472,4744;0,165009
473,4386;0,164519
474,4029;0,164324
475,3671;0,164439
476,3313;0,164744
477,2956;0,165088
478,2598;0,165362
479,2240;0,165518
480,1883;0,165542
481,1525;0,165436
482,1167;0,165215
483,0810;0,164931
484,0452;0,164688
485,0094;0,164612
485,9737;0,164786
486,9379;0,1652
487,9021;0,165766
488,8664;0,166368
489,8306;0,166919
490,7948;0,167373
491,7591;0,167729
492,7233;0,167997
493,6875;0,168184
494,6518;0,168285
495,6160;0,168306
496,5802;0,168274
497,5445;0,168244
498,5087;0,168286
499,4729;0,168464
500,4372;0,168812
501,4014;0,169305
502,3656;0,169857
503,3299;0,170346
504,2941;0,17067
505,2583;0,170795
506,2226;0,170769
507,1868;0,170699
508,1510;0,170709
509,1153;0,170884
510,0795;0,171247
511,0437;0,171771
512,0080;0,172416
512,9722;0,173157
513,9365;0,17399
514,9007;0,174899
515,8649;0,175829
516,8292;0,176669
517,7934;0,17729
518,7576;0,177612
519,7219;0,177655
520,6861;0,177524
521,6503;0,177343
522,6146;0,177208
523,5788;0,177163
524,5430;0,177212
525,5073;0,177316
526,4715;0,177416
527,4357;0,177449
528,4000;0,177383
529,3642;0,177222
530,3284;0,177004
531,2927;0,176781
532,2569;0,176599
533,2211;0,176487
534,1854;0,17644
535,1496;0,176433
536,1138;0,176432
537,0781;0,176416
538,0423;0,176379
539,0065;0,176326
539,9708;0,176261
540,9350;0,176183
541,8992;0,176091
542,8635;0,175999
543,8277;0,175946
544,7919;0,175997
545,7562;0,17622
546,7204;0,176645
547,6846;0,177233
548,6489;0,177878
549,6131;0,178441
550,5773;0,178819
551,5416;0,178996
552,5058;0,179061
553,4700;0,179167
554,4343;0,179456
555,3985;0,179972
556,3627;0,180622
557,3270;0,181208
558,2912;0,181507
559,2554;0,181377
560,2197;0,180813
561,1839;0,179932
562,1481;0,178912
563,1124;0,17791
564,0766;0,177006
565,0408;0,176199
566,0051;0,175446
566,9693;0,174707
567,9335;0,17398
568,8978;0,173303
569,8620;0,172742
570,8262;0,172351
571,7905;0,172148
572,7547;0,172111
573,7189;0,172178
574,6832;0,172277
575,6474;0,17235
576,6116;0,172376
577,5759;0,172376
578,5401;0,172385
579,5043;0,172416
580,4686;0,172446
581,4328;0,172427
582,3970;0,172325
583,3613;0,172145
584,3255;0,171933
585,2897;0,171755
586,2540;0,171668
587,2182;0,171695
588,1824;0,171838
589,1467;0,172075
590,1109;0,172364
591,0751;0,172639
592,0394;0,172814
593,0036;0,172818
593,9678;0,172622
594,9321;0,172259
595,8963;0,171799
596,8605;0,171314
597,8248;0,170842
598,7890;0,170384
599,7532;0,169922
600,7175;0,169441
601,6817;0,168953
602,6459;0,168487
603,6102;0,168072
604,5744;0,167715
605,5386;0,167397
606,5029;0,16708
607,4671;0,166725
608,4313;0,16631
609,3956;0,165835
610,3598;0,165327
611,3240;0,164831
612,2883;0,164388
613,2525;0,164021
614,2167;0,163713
615,1810;0,163401
616,1452;0,162988
617,1094;0,162376
618,0737;0,161508
619,0379;0,1604
620,0021;0,159129
620,9664;0,157793
621,9306;0,156482
622,8948;0,155259
623,8591;0,154164
624,8233;0,1532
625,7875;0,152382
626,7518;0,151681
627,7160;0,151057
628,6802;0,150473
629,6445;0,149903
630,6087;0,149336
631,5729;0,148779
632,5372;0,148241
633,5014;0,147733
634,4656;0,147257
635,4299;0,146806
636,3941;0,146369
637,3583;0,145934
638,3226;0,145496
639,2868;0,145057
640,2510;0,144628
641,2153;0,14422
642,1795;0,143841
643,1437;0,143493
644,1080;0,143174
645,0722;0,142875
646,0364;0,142591
647,0007;0,142316
647,9649;0,142048
648,9291;0,141789
649,8934;0,141546
650,8576;0,141331
651,8218;0,141158
652,7861;0,141038
653,7503;0,14098
654,7145;0,140987
655,6788;0,141056
656,6430;0,141177
657,6072;0,141333
658,5715;0,141493
659,5357;0,141612
660,4999;0,141634
661,4642;0,141512
662,4284;0,141238
663,3926;0,140835
664,3569;0,140361
665,3211;0,139922
666,2853;0,139669
667,2496;0,139669
668,2138;0,139656
669,1780;0,139194
670,1423;0,138264
671,1065;0,137123
672,0707;0,135866
673,0350;0,134458
673,9992;0,132882
674,9634;0,131187
675,9277;0,12947
676,8919;0,127823
677,8561;0,126292
678,8204;0,124885
679,7846;0,123614
680,7488;0,122504
681,7131;0,121579
682,6773;0,12082
683,6415;0,120166
684,6058;0,119543
685,5700;0,118907
686,5342;0,118253
687,4985;0,117612
688,4627;0,117021
689,4269;0,116497
690,3912;0,116038
691,3554;0,11563
692,3196;0,115252
693,2839;0,114892
694,2481;0,114538
695,2123;0,114186
696,1766;0,113826
697,1408;0,113447
698,1050;0,113035
699,0693;0,112575
700,0335;0,112065
700,9977;0,111519
701,9620;0,11097
702,9262;0,110452
703,8904;0,109984
704,8547;0,109561
705,8189;0,10915
706,7831;0,10871
707,7474;0,108213
708,7116;0,107658
709,6758;0,10707
710,6401;0,10648
711,6043;0,105909
712,5685;0,105365
713,5328;0,104852
714,4970;0,104378
715,4612;0,103731
716,4255;0,103414
717,3897;0,103141
718,3539;0,102834
719,3182;0,102398
720,2824;0,101762
721,2466;0,100932
722,2109;0,0999789
723,1751;0,0990004
724,1393;0,0980744
725,1036;0,097237
726,0678;0,0964883
727,0320;0,0958078
727,9963;0,0951661
728,9605;0,0945327
729,9247;0,0938831
730,8890;0,0932072
731,8532;0,0925155
732,8174;0,0918376
733,7817;0,0912106
734,7459;0,0906627
735,7101;0,0902016
736,6744;0,0898127
737,6386;0,0894657
738,6028;0,0891251
739,5671;0,0887598
740,5313;0,0883513
741,4955;0,0878993
742,4598;0,0874215
743,4240;0,0869453
744,3882;0,0864931
745,3525;0,0860702
746,3167;0,0856626
747,2809;0,0852479
748,2452;0,0848121
749,2094;0,0843598
750,1736;0,0839107
751,1379;0,0834859
752,1021;0,0830927
753,0663;0,0827208
754,0306;0,08235
754,9948;0,0819641
755,9590;0,0815595
756,9233;0,081145
757,8875;0,0807337
758,8517;0,080335
759,8160;0,0799526
760,7802;0,079587
761,7444;0,07924
762,7087;0,0789145
763,6729;0,078611
764,6371;0,0783228
765,6014;0,0780363
766,5656;0,0777371
767,5298;0,0774186
768,4941;0,0770872
769,4583;0,0767602
770,4225;0,0764573
771,3868;0,0761919
772,3510;0,0759666
773,3152;0,0757763
774,2795;0,0756131
775,2437;0,0754703
776,2079;0,0753423
777,1722;0,0752206
778,1364;0,075092
779,1006;0,0749402
780,0649;0,0747499
781,0291;0,0745119
781,9933;0,0742245
782,9576;0,0738923
783,9218;0,0735251
784,8860;0,0731362
785,8503;0,0727427
786,8145;0,0723643
787,7787;0,0720203
788,7430;0,0717243
789,7072;0,0714797
790,6714;0,0712787
791,6357;0,0711057
792,5999;0,0709439
793,5641;0,070782
794,5284;0,0706177
795,4926;0,0704572
796,4568;0,0703106
797,4211;0,0701851
798,3853;0,0700808
799,3495;0,0699884
800,3138;0,0698931
801,2780;0,0697799
802,2422;0,0696415
803,2065;0,0694811
804,1707;0,0693128
805,1349;0,0691553
806,0992;0,0690237
807,0634;0,0689217
808,0276;0,0688385
808,9919;0,068753
809,9561;0,0686432
810,9203;0,0684978
811,8846;0,0683222
812,8488;0,068136
813,8130;0,0679618
814,7773;0,0678118
815,7415;0,0676806
816,7057;0,0675502
817,6700;0,0674032
818,6342;0,0672368
819,5984;0,0670669
820,5627;0,0669195
821,5269;0,0668148
822,4911;0,066754
823,4554;0,066719
824,4196;0,0666829
825,3839;0,066627
826,3481;0,0665508
827,3123;0,0664705
828,2766;0,0664058
829,2408;0,0663659
830,2050;0,0663405
831,1693;0,0663046
832,1335;0,0662307
833,0977;0,0661028
834,0620;0,0659231
835,0262;0,0657092
835,9904;0,065483
836,9547;0,0652609
837,9189;0,0650489
838,8831;0,0648451
839,8474;0,064647
840,8116;0,0644564
841,7758;0,0642805
842,7401;0,0641285
843,7043;0,0640063
844,6685;0,0639136
845,6328;0,0638448
846,5970;0,0637917
847,5612;0,0637475
848,5255;0,0637092
849,4897;0,0636767
850,4539;0,0636507
851,4182;0,0636296
852,3824;0,0636084
853,3466;0,0635802
854,3109;0,0635395
855,2751;0,0634857
856,2393;0,0634252
857,2036;0,0633702
858,1678;0,0633343
859,1320;0,0633289
860,0963;0,0633577
861,0605;0,0634164
862,0247;0,0634934
862,9890;0,0635753
863,9532;0,0636532
864,9174;0,0637276
865,8817;0,0638078
866,8459;0,0639071
867,8101;0,0640349
868,7744;0,0641917
869,7386;0,0643701
870,7028;0,06456
871,6671;0,0647535
872,6313;0,0649456
873,5955;0,0651307
874,5598;0,0652996
875,5240;0,0654419
876,4882;0,0655519
877,4525;0,0656355
878,4167;0,0657103
879,3809;0,0657996
880,3452;0,0659236
881,3094;0,0660962
882,2736;0,0663269
883,2379;0,0666261
884,2021;0,0670079
885,1663;0,0674857
886,1306;0,0680659
887,0948;0,0687422
888,0590;0,0694969
889,0233;0,0703053
889,9875;0,0711418
890,9517;0,0719808
891,9160;0,0727966
892,8802;0,0735609
893,8444;0,0742436
894,8087;0,0748158
895,7729;0,0752527
896,7371;0,0755366
897,7014;0,0756573
898,6656;0,0756119
899,6298;0,0754047
900,5941;0,0750475
901,5583;0,07456
902,5225;0,0739695
903,4868;0,0733106
904,4510;0,0726235
905,4152;0,0719501
906,3795;0,0713303
907,3437;0,0707969
908,3079;0,0703723
909,2722;0,0700664
910,2364;0,0698756
911,2007;0,0697839
912,1649;0,0697669
913,1292;0,0697981
914,0934;0,0698585
915,0576;0,0699416
916,0219;0,0700533
916,9861;0,0702041
917,9503;0,0703984
918,9146;0,0706281
919,8788;0,070875
920,8430;0,0711205
921,8073;0,0713547
922,7715;0,0715785
923,7357;0,0717978
924,7000;0,0720154
925,6642;0,0722266
926,6284;0,0724227
927,5927;0,0725972
928,5569;0,0727509
929,5211;0,0728904
930,4854;0,073024
931,4496;0,0731582
932,4138;0,0732991
933,3781;0,0734563
934,3423;0,0736441
935,3065;0,0738781
936,2708;0,0741677
937,2350;0,0745118
938,1992;0,0749008
939,1635;0,0753252
940,1277;0,0757847
941,0919;0,0762905
942,0562;0,0768587
943,0204;0,0774986
943,9846;0,0782043
944,9489;0,0789562
945,9131;0,0797321
946,8773;0,0805224
947,8416;0,081338
948,8058;0,082207
949,7700;0,0831601
950,7343;0,0842139
951,6985;0,0853642
952,6627;0,0865911
953,6270;0,0878734
954,5912;0,0892008
955,5554;0,0905764
956,5197;0,0920091
957,4839;0,0935019
958,4481;0,0950471
959,4124;0,0966306
960,3766;0,0982416
961,3408;0,0998784
962,3051;0,101546
963,2693;0,103247
964,2335;0,104977
965,1978;0,106727
966,1620;0,108495
967,1262;0,110294
968,0905;0,112151
969,0547;0,114098
970,0189;0,11616
970,9832;0,118349
971,9474;0,120672
972,9116;0,123141
973,8759;0,12578
974,8401;0,128624
975,8043;0,131707
976,7686;0,135052
977,7328;0,138658
978,6970;0,142499
979,6613;0,146517
980,6255;0,150619
981,5897;0,154685
982,5540;0,158579
983,5182;0,162179
984,4824;0,165401
985,4467;0,16821
986,4109;0,170622
987,3751;0,172681
988,3394;0,174441
989,3036;0,175951
990,2678;0,177259
991,2321;0,178404
992,1963;0,179424
993,1605;0,180352
994,1248;0,181216
995,0890;0,182039
996,0532;0,182844
997,0175;0,183657
997,9817;0,184502
998,9459;0,185399
999,9102;0,186354
1000,8744;0,187374
1001,8386;0,188463
1002,8029;0,189638
1003,7671;0,190929
1004,7313;0,192371
1005,6956;0,193999
1006,6598;0,195844
1007,6240;0,197927
1008,5883;0,200261
1009,5525;0,202846
1010,5167;0,205663
1011,4810;0,208664
1012,4452;0,211776
1013,4094;0,214903
1014,3737;0,217945
1015,3379;0,220811
1016,3021;0,223432
1017,2664;0,225774
1018,2306;0,227836
1019,1948;0,229649
1020,1591;0,23127
1021,1233;0,232767
1022,0875;0,234209
1023,0518;0,235647
1024,0160;0,23711
1024,9802;0,238598
1025,9445;0,240086
1026,9087;0,241528
1027,8729;0,242864
1028,8372;0,244021
1029,8014;0,244916
1030,7656;0,245462
1031,7299;0,24557
1032,6941;0,245173
1033,6583;0,244241
1034,6226;0,242802
1035,5868;0,240942
1036,5510;0,238804
1037,5153;0,236562
1038,4795;0,234392
1039,4437;0,232444
1040,4080;0,230817
1041,3722;0,229552
1042,3364;0,228627
1043,3007;0,227977
1044,2649;0,227505
1045,2291;0,22711
1046,1934;0,226702
1047,1576;0,226213
1048,1218;0,225596
1049,0861;0,224821
1050,0503;0,223865
1051,0145;0,222708
1051,9788;0,221334
1052,9430;0,219736
1053,9072;0,217922
1054,8715;0,215907
1055,8357;0,213704
1056,7999;0,211305
1057,7642;0,208675
1058,7284;0,205765
1059,6926;0,202539
1060,6569;0,199007
1061,6211;0,195242
1062,5853;0,191366
1063,5496;0,187523
1064,5138;0,183837
1065,4780;0,180394
1066,4423;0,177226
1067,4065;0,17433
1068,3707;0,171675
1069,3350;0,16922
1070,2992;0,166918
1071,2634;0,16472
1072,2277;0,162582
1073,1919;0,160472
1074,1561;0,158371
1075,1204;0,156272
1076,0846;0,15418
1077,0488;0,1521
1078,0131;0,150047
1078,9773;0,148043
1079,9415;0,146121
1080,9058;0,144321
1081,8700;0,142682
1082,8342;0,141233
1083,7985;0,139986
1084,7627;0,138931
1085,7269;0,138044
1086,6912;0,137292
1087,6554;0,136641
1088,6196;0,136071
1089,5839;0,135573
1090,5481;0,135156
1091,5123;0,134833
1092,4766;0,134615
1093,4408;0,134501
1094,4050;0,134478
1095,3693;0,134526
1096,3335;0,13463
1097,2977;0,134781
1098,2620;0,134975
1099,2262;0,135208
1100,1904;0,135466
1101,1547;0,135727
1102,1189;0,135958
1103,0831;0,136126
1104,0474;0,136199
1105,0116;0,136155
1105,9758;0,13598
1106,9401;0,135662
1107,9043;0,135197
1108,8685;0,134574
1109,8328;0,133781
1110,7970;0,132802
1111,7612;0,131627
1112,7255;0,130264
1113,6897;0,128749
1114,6539;0,127151
1115,6182;0,125554
1116,5824;0,124039
1117,5466;0,122655
1118,5109;0,121407
1119,4751;0,120256
1120,4393;0,119134
1121,4036;0,117968
1122,3678;0,116689
1123,3320;0,115252
1124,2963;0,113632
1125,2605;0,111826
1126,2247;0,109849
1127,1890;0,107733
1128,1532;0,105523
1129,1174;0,103268
1130,0817;0,101014
1131,0459;0,0988024
1132,0101;0,0966657
1132,9744;0,0946311
1133,9386;0,0927245
1134,9028;0,0909742
1135,8671;0,0894099
1136,8313;0,0880592
1137,7955;0,0869422
1138,7598;0,0860681
1139,7240;0,0854326
1140,6882;0,0850196
1141,6525;0,0848029
1142,6167;0,0847493
1143,5809;0,084823
1144,5452;0,0849907
1145,5094;0,085228
1146,4736;0,0855242
1147,4379;0,0858825
1148,4021;0,0863151
1149,3663;0,0868335
1150,3306;0,087439
1151,2948;0,0881167
1152,2590;0,0888359
1153,2233;0,0895558
1154,1875;0,0902305
1155,1517;0,090813
1156,1160;0,0912556
1157,0802;0,091508
1158,0444;0,0915165
1159,0087;0,091226
1159,9729;0,0905838
1160,9371;0,089547
1161,9014;0,0880921
1162,8656;0,0862225
1163,8298;0,0839743
1164,7941;0,0814161
1165,7583;0,0786417
1166,7225;0,0757597
1167,6868;0,0728797
1168,6510;0,0700992
1169,6152;0,0674948
1170,5795;0,065116
1171,5437;0,0629854
1172,5079;0,0611026
1173,4722;0,0594513
1174,4364;0,0580073
1175,4006;0,0567461
1176,3649;0,0556473
1177,3291;0,0546958
1178,2933;0,0538807
1179,2576;0,0531926
1180,2218;0,0526225
1181,1860;0,0521607
1182,1503;0,0517968
1183,1145;0,0515204
1184,0787;0,051321
1185,0430;0,0511894
1186,0072;0,0511194
1186,9714;0,0511096
1187,9357;0,051165
1188,8999;0,0512951
1189,8641;0,05151
1190,8284;0,0518155
1191,7926;0,0522105
1192,7568;0,0526879
1193,7211;0,0532384
1194,6853;0,0538531
1195,6495;0,0545234
1196,6138;0,055238
1197,5780;0,0559797
1198,5422;0,0567265
1199,5065;0,0572334
1200,4707;0,0579614
1201,4349;0,0586593
1202,3992;0,059333
1203,3634;0,0599907
1204,3276;0,0606369
1205,2919;0,06127
1206,2561;0,0618864
1207,2203;0,0624876
1208,1846;0,063084
1209,1488;0,0636955
1210,1130;0,064346
1211,0773;0,0650571
1212,0415;0,0658417
1213,0057;0,0667018
1213,9700;0,0676272
1214,9342;0,0685991
1215,8984;0,069594
1216,8627;0,0705874
1217,8269;0,0715584
1218,7911;0,0724961
1219,7554;0,0733972
1220,7196;0,0742633
1221,6838;0,0750962
1222,6481;0,0758946
1223,6123;0,0766556
1224,5765;0,0773766
1225,5408;0,0780582
1226,5050;0,0787032
1227,4692;0,0793131
1228,4335;0,0798849
1229,3977;0,08041
1230,3619;0,0808781
1231,3262;0,0812817
1232,2904;0,0816197
1233,2546;0,0818974
1234,2189;0,0821232
1235,1831;0,0823053
1236,1473;0,0824503
1237,1116;0,0825641
1238,0758;0,0826528
1239,0400;0,0827221
1240,0043;0,0827742
1240,9685;0,0828051
1241,9327;0,0828041
1242,8970;0,0827575
1243,8612;0,0826535
1244,8254;0,0824875
1245,7897;0,0822626
1246,7539;0,081988
1247,7181;0,0816747
1248,6824;0,0813317
1249,6466;0,0809642
1250,6108;0,0805753
1251,5751;0,0801684
1252,5393;0,0797502
1253,5035;0,0793307
1254,4678;0,0789205
1255,4320;0,0785247
1256,3962;0,0781384
1257,3605;0,0777461
1258,3247;0,0773262
1259,2889;0,0768596
1260,2532;0,0763371
1261,2174;0,0757613
1262,1816;0,0751434
1263,1459;0,0744957
1264,1101;0,0738269
1265,0743;0,07314
1266,0386;0,072433
1267,0028;0,0716993
1267,9670;0,0709302
1268,9313;0,0701167
1269,8955;0,0692551
1270,8597;0,0683507
1271,8240;0,0674192
1272,7882;0,0664833
1273,7524;0,0655659
1274,7167;0,0646852
1275,6809;0,0638514
1276,6451;0,0630679
1277,6094;0,0623312
1278,5736;0,061632
1279,5378;0,060957
1280,5021;0,0602942
1281,4663;0,059639
1282,4305;0,0589988
1283,3948;0,058391
1284,3590;0,057836
1285,3232;0,057348
1286,2875;0,0569284
1287,2517;0,0565674
1288,2159;0,0562508
1289,1802;0,0559706
1290,1444;0,0557313
1291,1086;0,0555483
1292,0729;0,0554401
1293,0371;0,0554201
1294,0013;0,0554905
1294,9656;0,0556437
1295,9298;0,055867
1296,8940;0,0561497
1297,8583;0,0564873
1298,8225;0,0568809
1299,7867;0,057333
1300,7510;0,0578428
1301,7152;0,0584075
1302,6794;0,0590203
1303,6437;0,0596728
1304,6079;0,0603591
1305,5721;0,0610748
1306,5364;0,0618184
1307,5006;0,062592
1308,4648;0,0633999
1309,4291;0,064243
1310,3933;0,065112
1311,3575;0,0659814
1312,3218;0,0668129
1313,2860;0,0675662
1314,2502;0,0682099
1315,2145;0,0687231
1316,1787;0,0690871
1317,1429;0,0692781
1318,1072;0,0692732
1319,0714;0,0690705
1320,0356;0,0687066
1320,9999;0,0682515
1321,9641;0,0677821
1322,9283;0,0673545
1323,8926;0,066993
1324,8568;0,0666967
1325,8210;0,0664528
1326,7853;0,0662482
1327,7495;0,0660718
1328,7137;0,0659124
1329,6780;0,0657546
1330,6422;0,0655831
1331,6064;0,0653921
1332,5707;0,0651922
1333,5349;0,06501
1334,4991;0,064872
1335,4634;0,0647829
1336,4276;0,0647042
1337,3918;0,064545
1338,3561;0,0641894
1339,3203;0,063573
1340,2845;0,0627528
1341,2488;0,0618815
1342,2130;0,0611074
1343,1772;0,060506
1344,1415;0,0600842
1345,1057;0,0598148
1346,0699;0,0596626
1347,0342;0,0595984
1347,9984;0,0596065
1348,9626;0,0596865
1349,9269;0,059847
1350,8911;0,0600941
1351,8553;0,0604221
1352,8196;0,0608131
1353,7838;0,0612442
1354,7480;0,0616993
1355,7123;0,0621789
1356,6765;0,0626993
1357,6407;0,0632828
1358,6050;0,0639448
1359,5692;0,0646797
