TITLE;
DATA TYPE;INFRARED SPECTRUM
ORIGIN;JASCO
OWNER;
DATE;25/03/26
TIME;16:38:38
SPECTROMETER/DATA SYSTEM;
LOCALE;9226
RESOLUTION;
DELTAX;0,964233
XUNITS;1/CM
YUNITS;ABSORBANCE
FIRSTX;  399,1927
LASTX; 4000,6047
NPOINTS;    3736
FIRSTY;     0,19234
MAXY;     0,27255
MINY;     0,01574
XYDATA
399,1927;0,192341
400,1569;0,192254
401,1211;0,191754
402,0854;0,19114
403,0496;0,190522
404,0138;0,189903
404,9781;0,189296
405,9423;0,18882
406,9065;0,188682
407,8708;0,189073
408,8350;0,190025
409,7992;0,191358
410,7635;0,192738
411,7277;0,193837
412,6919;0,194492
413,6562;0,194721
414,6204;0,194617
415,5846;0,194224
416,5489;0,193545
417,5131;0,192699
418,4773;0,192121
419,4416;0,192412
420,4058;0,193733
421,3700;0,195632
422,3343;0,197525
423,2985;0,199031
424,2627;0,200019
425,2270;0,200564
426,1912;0,200894
427,1554;0,201249
428,1197;0,201747
429,0839;0,202332
430,0481;0,202837
431,0124;0,203095
431,9766;0,203049
432,9408;0,202775
433,9051;0,202434
434,8693;0,202181
435,8335;0,202099
436,7978;0,202173
437,7620;0,202316
438,7262;0,202415
439,6905;0,202376
440,6547;0,202155
441,6189;0,201791
442,5832;0,201414
443,5474;0,201199
444,5116;0,201262
445,4759;0,201577
446,4401;0,201988
447,4043;0,202294
448,3686;0,20234
449,3328;0,202068
450,2970;0,201504
451,2613;0,200732
452,2255;0,199852
453,1897;0,198962
454,1540;0,198171
455,1182;0,197618
456,0824;0,197451
457,0467;0,197754
458,0109;0,198434
458,9751;0,199206
459,9394;0,199762
460,9036;0,199956
461,8678;0,199842
462,8321;0,199579
463,7963;0,199338
464,7605;0,199222
465,7248;0,199235
466,6890;0,199294
467,6532;0,199272
468,6175;0,199066
469,5817;0,198629
470,5459;0,197999
471,5102;0,197301
472,4744;0,196719
473,4386;0,196415
474,4029;0,196445
475,3671;0,19675
476,3313;0,197203
477,2956;0,197668
478,2598;0,198024
479,2240;0,198183
480,1883;0,198104
481,1525;0,197809
482,1167;0,197399
483,0810;0,19704
484,0452;0,196914
485,0094;0,197132
485,9737;0,197661
486,9379;0,198335
487,9021;0,198936
488,8664;0,199292
489,8306;0,199346
490,7948;0,199174
491,7591;0,198943
492,7233;0,198832
493,6875;0,19893
494,6518;0,199206
495,6160;0,199557
496,5802;0,199875
497,5445;0,200111
498,5087;0,20028
499,4729;0,200434
500,4372;0,200626
501,4014;0,200879
502,3656;0,201184
503,3299;0,20151
504,2941;0,201824
505,2583;0,202103
506,2226;0,202333
507,1868;0,202514
508,1510;0,202665
509,1153;0,20283
510,0795;0,203066
511,0437;0,203429
512,0080;0,203951
512,9722;0,204634
513,9365;0,205456
514,9007;0,206364
515,8649;0,207278
516,8292;0,20809
517,7934;0,208698
518,7576;0,209046
519,7219;0,209158
520,6861;0,209119
521,6503;0,209026
522,6146;0,208944
523,5788;0,208901
524,5430;0,208899
525,5073;0,208922
526,4715;0,208948
527,4357;0,208944
528,4000;0,208871
529,3642;0,208699
530,3284;0,208423
531,2927;0,208073
532,2569;0,207706
533,2211;0,207371
534,1854;0,207081
535,1496;0,206794
536,1138;0,206446
537,0781;0,206001
538,0423;0,205487
539,0065;0,204997
539,9708;0,204644
540,9350;0,204501
541,8992;0,204577
542,8635;0,204817
543,8277;0,205142
544,7919;0,205479
545,7562;0,205791
546,7204;0,206074
547,6846;0,206349
548,6489;0,206636
549,6131;0,20694
550,5773;0,207253
551,5416;0,207561
552,5058;0,207857
553,4700;0,208147
554,4343;0,20844
555,3985;0,208726
556,3627;0,208962
557,3270;0,209076
558,2912;0,208987
559,2554;0,208644
560,2197;0,208052
561,1839;0,207267
562,1481;0,206374
563,1124;0,205446
564,0766;0,204523
565,0408;0,203608
566,0051;0,20269
566,9693;0,201773
567,9335;0,200894
568,8978;0,200112
569,8620;0,199489
570,8262;0,199059
571,7905;0,198815
572,7547;0,198713
573,7189;0,198687
574,6832;0,19866
575,6474;0,198569
576,6116;0,198381
577,5759;0,19811
578,5401;0,197804
579,5043;0,197526
580,4686;0,197322
581,4328;0,197202
582,3970;0,197138
583,3613;0,19708
584,3255;0,196981
585,2897;0,196818
586,2540;0,196598
587,2182;0,196347
588,1824;0,196104
589,1467;0,195901
590,1109;0,195766
591,0751;0,195716
592,0394;0,195751
593,0036;0,195845
593,9678;0,195946
594,9321;0,195984
595,8963;0,195893
596,8605;0,195635
597,8248;0,195215
598,7890;0,194687
599,7532;0,194133
600,7175;0,193617
601,6817;0,19316
602,6459;0,192729
603,6102;0,192266
604,5744;0,191731
605,5386;0,191124
606,5029;0,190478
607,4671;0,189824
608,4313;0,189165
609,3956;0,188472
610,3598;0,187718
611,3240;0,186913
612,2883;0,186116
613,2525;0,185411
614,2167;0,18485
615,1810;0,184404
616,1452;0,183956
617,1094;0,183341
618,0737;0,18243
619,0379;0,181193
620,0021;0,179704
620,9664;0,178088
621,9306;0,176469
622,8948;0,174947
623,8591;0,173591
624,8233;0,172428
625,7875;0,171503
626,7518;0,170783
627,7160;0,170198
628,6802;0,169664
629,6445;0,169113
630,6087;0,168519
631,5729;0,167895
632,5372;0,16728
633,5014;0,166712
634,4656;0,166209
635,4299;0,165764
636,3941;0,165354
637,3583;0,164961
638,3226;0,164573
639,2868;0,164193
640,2510;0,163824
641,2153;0,163472
642,1795;0,163135
643,1437;0,162813
644,1080;0,162507
645,0722;0,16222
646,0364;0,161953
647,0007;0,161697
647,9649;0,161439
648,9291;0,161163
649,8934;0,160866
650,8576;0,160571
651,8218;0,160314
652,7861;0,160136
653,7503;0,160067
654,7145;0,160108
655,6788;0,160236
656,6430;0,160412
657,6072;0,160596
658,5715;0,160752
659,5357;0,160837
660,4999;0,160799
661,4642;0,160592
662,4284;0,160195
663,3926;0,159618
664,3569;0,158921
665,3211;0,158245
666,2853;0,157818
667,2496;0,157769
668,2138;0,157768
669,1780;0,157235
670,1423;0,156148
671,1065;0,154848
672,0707;0,153447
673,0350;0,151884
673,9992;0,150124
674,9634;0,148222
675,9277;0,146283
676,8919;0,144405
677,8561;0,142639
678,8204;0,141001
679,7846;0,13951
680,7488;0,138203
681,7131;0,137107
682,6773;0,136209
683,6415;0,135445
684,6058;0,134738
685,5700;0,134032
686,5342;0,13331
687,4985;0,132586
688,4627;0,131884
689,4269;0,131217
690,3912;0,130587
691,3554;0,129992
692,3196;0,129433
693,2839;0,128913
694,2481;0,128435
695,2123;0,128003
696,1766;0,12761
697,1408;0,127229
698,1050;0,126823
699,0693;0,126344
700,0335;0,125766
700,9977;0,125092
701,9620;0,124362
702,9262;0,123638
703,8904;0,122974
704,8547;0,122398
705,8189;0,121901
706,7831;0,121441
707,7474;0,120971
708,7116;0,120457
709,6758;0,119893
710,6401;0,11929
711,6043;0,118667
712,5685;0,118044
713,5328;0,117444
714,4970;0,116894
715,4612;0,116056
716,4255;0,115724
717,3897;0,115451
718,3539;0,115136
719,3182;0,114656
720,2824;0,113922
721,2466;0,112938
722,2109;0,111791
723,1751;0,110604
724,1393;0,109474
725,1036;0,108446
726,0678;0,107524
727,0320;0,106688
727,9963;0,105916
728,9605;0,105186
729,9247;0,104476
730,8890;0,103765
731,8532;0,103041
732,8174;0,102312
733,7817;0,101606
734,7459;0,100959
735,7101;0,100401
736,6744;0,099934
737,6386;0,0995333
738,6028;0,0991543
739,5671;0,098755
740,5313;0,0983138
741,4955;0,0978367
742,4598;0,0973491
743,4240;0,0968785
744,3882;0,096438
745,3525;0,0960208
746,3167;0,0956078
747,2809;0,0951811
748,2452;0,0947347
749,2094;0,0942751
750,1736;0,0938149
751,1379;0,0933634
752,1021;0,0929216
753,0663;0,0924834
754,0306;0,0920395
754,9948;0,0915825
755,9590;0,0911095
756,9233;0,090623
757,8875;0,09013
758,8517;0,0896404
759,8160;0,0891657
760,7802;0,088716
761,7444;0,088297
762,7087;0,0879072
763,6729;0,0875364
764,6371;0,0871668
765,6014;0,0867798
766,5656;0,0863637
767,5298;0,0859211
768,4941;0,0854693
769,4583;0,0850343
770,4225;0,0846395
771,3868;0,0842967
772,3510;0,0840037
773,3152;0,0837492
774,2795;0,0835203
775,2437;0,0833076
776,2079;0,0831044
777,1722;0,0829039
778,1364;0,0826949
779,1006;0,0824627
780,0649;0,0821917
781,0291;0,0818701
781,9933;0,0814932
782,9576;0,0810658
783,9218;0,080602
784,8860;0,0801235
785,8503;0,0796546
786,8145;0,0792166
787,7787;0,0788228
788,7430;0,0784772
789,7072;0,0781768
790,6714;0,0779156
791,6357;0,0776871
792,5999;0,077484
793,5641;0,0772967
794,5284;0,0771126
795,4926;0,0769203
796,4568;0,0767142
797,4211;0,0764977
798,3853;0,0762817
799,3495;0,0760782
800,3138;0,0758928
801,2780;0,0757222
802,2422;0,0755575
803,2065;0,0753904
804,1707;0,0752189
805,1349;0,0750487
806,0992;0,0748888
807,0634;0,0747463
808,0276;0,0746209
808,9919;0,0745049
809,9561;0,0743861
810,9203;0,074253
811,8846;0,0741001
812,8488;0,0739303
813,8130;0,073753
814,7773;0,0735801
815,7415;0,0734209
816,7057;0,0732789
817,6700;0,0731534
818,6342;0,0730434
819,5984;0,0729508
820,5627;0,0728806
821,5269;0,0728366
822,4911;0,0728169
823,4554;0,0728111
824,4196;0,0728042
825,3839;0,0727837
826,3481;0,0727449
827,3123;0,0726919
828,2766;0,0726319
829,2408;0,0725681
830,2050;0,0724959
831,1693;0,0724055
832,1335;0,0722882
833,0977;0,0721425
834,0620;0,0719744
835,0262;0,0717914
835,9904;0,0715962
836,9547;0,0713836
837,9189;0,0711445
838,8831;0,0708749
839,8474;0,0705821
840,8116;0,0702861
841,7758;0,0700116
842,7401;0,0697785
843,7043;0,0695939
844,6685;0,0694518
845,6328;0,0693381
846,5970;0,0692375
847,5612;0,0691391
848,5255;0,0690379
849,4897;0,0689332
850,4539;0,0688266
851,4182;0,0687207
852,3824;0,0686181
853,3466;0,068521
854,3109;0,0684313
855,2751;0,0683519
856,2393;0,0682877
857,2036;0,0682459
858,1678;0,0682332
859,1320;0,068252
860,0963;0,0682976
861,0605;0,0683592
862,0247;0,0684263
862,9890;0,068496
863,9532;0,0685767
864,9174;0,0686841
865,8817;0,0688314
866,8459;0,0690196
867,8101;0,0692355
868,7744;0,0694585
869,7386;0,0696724
870,7028;0,0698741
871,6671;0,0700722
872,6313;0,0702766
873,5955;0,070487
874,5598;0,0706874
875,5240;0,0708529
876,4882;0,0709645
877,4525;0,0710233
878,4167;0,0710558
879,3809;0,0711066
880,3452;0,071223
881,3094;0,0714397
882,2736;0,0717708
883,2379;0,0722124
884,2021;0,0727513
885,1663;0,0733748
886,1306;0,0740761
887,0948;0,0748535
888,0590;0,0757056
889,0233;0,0766256
889,9875;0,077598
890,9517;0,0785977
891,9160;0,0795906
892,8802;0,0805357
893,8444;0,0813875
894,8087;0,0821016
895,7729;0,0826421
896,7371;0,0829877
897,7014;0,0831349
898,6656;0,0830943
899,6298;0,0828831
900,5941;0,0825179
901,5583;0,0820132
902,5225;0,0813876
903,4868;0,0806716
904,4510;0,0799118
905,4152;0,0791658
906,3795;0,0784897
907,3437;0,0779231
908,3079;0,077482
909,2722;0,0771604
910,2364;0,0769411
911,2007;0,0768063
912,1649;0,076744
913,1292;0,0767487
914,0934;0,076816
915,0576;0,0769398
916,0219;0,0771111
916,9861;0,0773204
917,9503;0,0775602
918,9146;0,0778243
919,8788;0,0781053
920,8430;0,0783927
921,8073;0,0786732
922,7715;0,078937
923,7357;0,0791823
924,7000;0,0794174
925,6642;0,0796551
926,6284;0,0799028
927,5927;0,0801556
928,5569;0,0803967
929,5211;0,0806072
930,4854;0,0807785
931,4496;0,0809189
932,4138;0,0810502
933,3781;0,0811969
934,3423;0,0813769
935,3065;0,0815986
936,2708;0,0818672
937,2350;0,0821902
938,1992;0,0825789
939,1635;0,0830423
940,1277;0,0835806
941,0919;0,0841834
942,0562;0,084837
943,0204;0,0855351
943,9846;0,0862842
944,9489;0,0871012
945,9131;0,0880028
946,8773;0,0889974
947,8416;0,090082
948,8058;0,091249
949,7700;0,0924943
950,7343;0,093823
951,6985;0,0952473
952,6627;0,0967794
953,6270;0,0984239
954,5912;0,100173
955,5554;0,102007
956,5197;0,103905
957,4839;0,105846
958,4481;0,107823
959,4124;0,109839
960,3766;0,111903
961,3408;0,114021
962,3051;0,116184
963,2693;0,118371
964,2335;0,12056
965,1978;0,122736
966,1620;0,12491
967,1262;0,127112
968,0905;0,129388
969,0547;0,131778
970,0189;0,134315
970,9832;0,137018
971,9474;0,139904
972,9116;0,142989
973,8759;0,14629
974,8401;0,149819
975,8043;0,153579
976,7686;0,157565
977,7328;0,16176
978,6970;0,166136
979,6613;0,170647
980,6255;0,175218
981,5897;0,17974
982,5540;0,184081
983,5182;0,188116
984,4824;0,191749
985,4467;0,19494
986,4109;0,197702
987,3751;0,200085
988,3394;0,202151
989,3036;0,203956
990,2678;0,205541
991,2321;0,206933
992,1963;0,208152
993,1605;0,209219
994,1248;0,21016
995,0890;0,211007
996,0532;0,211798
997,0175;0,212569
997,9817;0,213352
998,9459;0,214172
999,9102;0,21505
1000,8744;0,216001
1001,8386;0,217044
1002,8029;0,218206
1003,7671;0,219518
1004,7313;0,221019
1005,6956;0,222749
1006,6598;0,224749
1007,6240;0,227054
1008,5883;0,229678
1009,5525;0,23261
1010,5167;0,235803
1011,4810;0,239185
1012,4452;0,242657
1013,4094;0,246116
1014,3737;0,249456
1015,3379;0,252586
1016,3021;0,25543
1017,2664;0,257937
1018,2306;0,260091
1019,1948;0,26191
1020,1591;0,263441
1021,1233;0,264752
1022,0875;0,26591
1023,0518;0,266973
1024,0160;0,26798
1024,9802;0,268952
1025,9445;0,269887
1026,9087;0,270766
1027,8729;0,271545
1028,8372;0,272157
1029,8014;0,272521
1030,7656;0,272551
1031,7299;0,272178
1032,6941;0,271362
1033,6583;0,270102
1034,6226;0,268443
1035,5868;0,266472
1036,5510;0,26431
1037,5153;0,262099
1038,4795;0,259983
1039,4437;0,258085
1040,4080;0,256485
1041,3722;0,25521
1042,3364;0,254226
1043,3007;0,253453
1044,2649;0,252787
1045,2291;0,252126
1046,1934;0,251386
1047,1576;0,250513
1048,1218;0,24947
1049,0861;0,248233
1050,0503;0,246779
1051,0145;0,245088
1051,9788;0,243153
1052,9430;0,240986
1053,9072;0,238623
1054,8715;0,236107
1055,8357;0,233467
1056,7999;0,230697
1057,7642;0,227756
1058,7284;0,224588
1059,6926;0,221151
1060,6569;0,21746
1061,6211;0,213594
1062,5853;0,20968
1063,5496;0,205864
1064,5138;0,202264
1065,4780;0,198951
1066,4423;0,19594
1067,4065;0,193201
1068,3707;0,190685
1069,3350;0,188338
1070,2992;0,186107
1071,2634;0,183947
1072,2277;0,181817
1073,1919;0,179679
1074,1561;0,177499
1075,1204;0,175255
1076,0846;0,172947
1077,0488;0,170596
1078,0131;0,168245
1078,9773;0,165948
1079,9415;0,16376
1080,9058;0,161721
1081,8700;0,159852
1082,8342;0,158162
1083,7985;0,156648
1084,7627;0,155307
1085,7269;0,154132
1086,6912;0,153109
1087,6554;0,15222
1088,6196;0,151442
1089,5839;0,15076
1090,5481;0,150169
1091,5123;0,149674
1092,4766;0,149286
1093,4408;0,149013
1094,4050;0,148848
1095,3693;0,148772
1096,3335;0,148763
1097,2977;0,148797
1098,2620;0,148859
1099,2262;0,148937
1100,1904;0,149016
1101,1547;0,149073
1102,1189;0,149075
1103,0831;0,148989
1104,0474;0,148792
1105,0116;0,148479
1105,9758;0,148063
1106,9401;0,147562
1107,9043;0,14699
1108,8685;0,146341
1109,8328;0,145596
1110,7970;0,144724
1111,7612;0,143696
1112,7255;0,142501
1113,6897;0,141153
1114,6539;0,139698
1115,6182;0,138204
1116,5824;0,136745
1117,5466;0,135381
1118,5109;0,134139
1119,4751;0,132999
1120,4393;0,131904
1121,4036;0,130772
1122,3678;0,129519
1123,3320;0,128078
1124,2963;0,126413
1125,2605;0,124514
1126,2247;0,122399
1127,1890;0,120106
1128,1532;0,117685
1129,1174;0,11519
1130,0817;0,112677
1131,0459;0,110195
1132,0101;0,107785
1132,9744;0,105483
1133,9386;0,103321
1134,9028;0,101333
1135,8671;0,0995521
1136,8313;0,0980085
1137,7955;0,0967251
1138,7598;0,0957127
1139,7240;0,0949677
1140,6882;0,0944732
1141,6525;0,0942021
1142,6167;0,0941215
1143,5809;0,0941973
1144,5452;0,0943989
1145,5094;0,0947023
1146,4736;0,0950923
1147,4379;0,0955618
1148,4021;0,0961075
1149,3663;0,0967233
1150,3306;0,0973944
1151,2948;0,0980929
1152,2590;0,098779
1153,2233;0,0994052
1154,1875;0,0999224
1155,1517;0,100284
1156,1160;0,100445
1157,0802;0,100365
1158,0444;0,100001
1159,0087;0,0993069
1159,9729;0,0982419
1160,9371;0,096772
1161,9014;0,0948827
1162,8656;0,0925881
1163,8298;0,0899366
1164,7941;0,0870095
1165,7583;0,0839112
1166,7225;0,0807549
1167,6868;0,0776482
1168,6510;0,0746807
1169,6152;0,0719174
1170,5795;0,0693967
1171,5437;0,0671321
1172,5079;0,0651181
1173,4722;0,0633365
1174,4364;0,0617655
1175,4006;0,0603856
1176,3649;0,0591836
1177,3291;0,0581506
1178,2933;0,0572782
1179,2576;0,0565542
1180,2218;0,0559616
1181,1860;0,0554801
1182,1503;0,055091
1183,1145;0,0547804
1184,0787;0,0545406
1185,0430;0,0543699
1186,0072;0,0542713
1186,9714;0,0542517
1187,9357;0,0543196
1188,8999;0,0544831
1189,8641;0,0547466
1190,8284;0,0551091
1191,7926;0,0555644
1192,7568;0,0561035
1193,7211;0,0567171
1194,6853;0,0573954
1195,6495;0,0581273
1196,6138;0,0588978
1197,5780;0,0596882
1198,5422;0,0604799
1199,5065;0,0611894
1200,4707;0,0619601
1201,4349;0,0627184
1202,3992;0,0634719
1203,3634;0,0642267
1204,3276;0,0649835
1205,2919;0,0657381
1206,2561;0,0664866
1207,2203;0,0672305
1208,1846;0,0679807
1209,1488;0,0687567
1210,1130;0,0695828
1211,0773;0,0704808
1212,0415;0,0714649
1213,0057;0,0725376
1213,9700;0,0736895
1214,9342;0,074902
1215,8984;0,0761502
1216,8627;0,0774063
1217,8269;0,078643
1218,7911;0,0798385
1219,7554;0,080979
1220,7196;0,0820605
1221,6838;0,0830868
1222,6481;0,0840656
1223,6123;0,0850037
1224,5765;0,0859039
1225,5408;0,0867645
1226,5050;0,087581
1227,4692;0,088348
1228,4335;0,0890602
1229,3977;0,0897125
1230,3619;0,0902993
1231,3262;0,0908156
1232,2904;0,0912578
1233,2546;0,0916255
1234,2189;0,0919223
1235,1831;0,0921551
1236,1473;0,0923326
1237,1116;0,0924632
1238,0758;0,0925527
1239,0400;0,0926034
1240,0043;0,0926129
1240,9685;0,092575
1241,9327;0,0924814
1242,8970;0,0923244
1243,8612;0,0920999
1244,8254;0,0918086
1245,7897;0,0914563
1246,7539;0,0910523
1247,7181;0,0906065
1248,6824;0,0901266
1249,6466;0,0896176
1250,6108;0,0890826
1251,5751;0,0885267
1252,5393;0,0879591
1253,5035;0,0873922
1254,4678;0,0868366
1255,4320;0,0862939
1256,3962;0,0857534
1257,3605;0,0851943
1258,3247;0,0845945
1259,2889;0,0839397
1260,2532;0,0832285
1261,2174;0,0824699
1262,1816;0,0816758
1263,1459;0,0808538
1264,1101;0,0800055
1265,0743;0,0791291
1266,0386;0,0782224
1267,0028;0,0772838
1267,9670;0,0763111
1268,9313;0,0753021
1269,8955;0,0742569
1270,8597;0,0731814
1271,8240;0,0720888
1272,7882;0,0709966
1273,7524;0,0699218
1274,7167;0,0688776
1275,6809;0,0678722
1276,6451;0,0669103
1277,6094;0,0659931
1278,5736;0,0651181
1279,5378;0,0642784
1280,5021;0,0634653
1281,4663;0,0626731
1282,4305;0,0619028
1283,3948;0,0611635
1284,3590;0,0604691
1285,3232;0,0598343
1286,2875;0,0592705
1287,2517;0,0587847
1288,2159;0,0583799
1289,1802;0,0580558
1290,1444;0,0578102
1291,1086;0,0576396
1292,0729;0,0575412
1293,0371;0,0575141
1294,0013;0,0575595
1294,9656;0,0576799
1295,9298;0,0578765
1296,8940;0,0581481
1297,8583;0,0584909
1298,8225;0,058899
1299,7867;0,0593662
1300,7510;0,0598858
1301,7152;0,0604524
1302,6794;0,0610609
1303,6437;0,0617077
1304,6079;0,0623905
1305,5721;0,0631069
1306,5364;0,0638535
1307,5006;0,0646263
1308,4648;0,0654225
1309,4291;0,0662398
1310,3933;0,0670751
1311,3575;0,0679188
1312,3218;0,0687511
1313,2860;0,0695415
1314,2502;0,0702531
1315,2145;0,0708486
1316,1787;0,0712948
1317,1429;0,0715681
1318,1072;0,0716617
1319,0714;0,0715937
1320,0356;0,0714061
1320,9999;0,071152
1321,9641;0,0708775
1322,9283;0,0706114
1323,8926;0,0703662
1324,8568;0,0701459
1325,8210;0,069952
1326,7853;0,0697841
1327,7495;0,0696358
1328,7137;0,0694925
1329,6780;0,0693332
1330,6422;0,0691376
1331,6064;0,0688938
1332,5707;0,0686006
1333,5349;0,0682643
1334,4991;0,0678879
1335,4634;0,0674638
1336,4276;0,0669728
1337,3918;0,0663946
1338,3561;0,0657286
1339,3203;0,0650134
1340,2845;0,0643199
1341,2488;0,063713
1342,2130;0,0632196
1343,1772;0,0628308
1344,1415;0,0625247
1345,1057;0,0622859
1346,0699;0,0621117
1347,0342;0,0620092
1347,9984;0,0619885
1348,9626;0,0620572
1349,9269;0,0622157
1350,8911;0,0624565
1351,8553;0,0627675
1352,8196;0,0631377
1353,7838;0,0635629
1354,7480;0,0640454
1355,7123;0,0645872
1356,6765;0,0651836
1357,6407;0,0658217
1358,6050;0,0664858
1359,5692;0,0671627
