TITLE;
DATA TYPE;INFRARED SPECTRUM
ORIGIN;JASCO
OWNER;
DATE;25/04/01
TIME;14:57:47
SPECTROMETER/DATA SYSTEM;
LOCALE;9226
RESOLUTION;
DELTAX;0,964233
XUNITS;1/CM
YUNITS;ABSORBANCE
FIRSTX;  399,1927
LASTX; 4000,6047
NPOINTS;    3736
FIRSTY;     0,14845
MAXY;     0,17160
MINY;     0,02391
XYDATA
399,1927;0,148445
400,1569;0,148952
401,1211;0,147927
402,0854;0,145927
403,0496;0,14361
404,0138;0,141588
404,9781;0,14035
405,9423;0,140128
406,9065;0,14081
407,8708;0,142012
408,8350;0,143293
409,7992;0,144351
410,7635;0,14509
411,7277;0,145564
412,6919;0,145885
413,6562;0,146156
414,6204;0,146452
415,5846;0,14684
416,5489;0,147365
417,5131;0,148
418,4773;0,148567
419,4416;0,148812
420,4058;0,148668
421,3700;0,14832
422,3343;0,148017
423,2985;0,147931
424,2627;0,148133
425,2270;0,148599
426,1912;0,149223
427,1554;0,149853
428,1197;0,150355
429,0839;0,150658
430,0481;0,150779
431,0124;0,150814
431,9766;0,150892
432,9408;0,151106
433,9051;0,151461
434,8693;0,151867
435,8335;0,152209
436,7978;0,152437
437,7620;0,152607
438,7262;0,152829
439,6905;0,153169
440,6547;0,153573
441,6189;0,153867
442,5832;0,153834
443,5474;0,153348
444,5116;0,152461
445,4759;0,151375
446,4401;0,150324
447,4043;0,149484
448,3686;0,148954
449,3328;0,148776
450,2970;0,148949
451,2613;0,149427
452,2255;0,150115
453,1897;0,15087
454,1540;0,151527
455,1182;0,151912
456,0824;0,151879
457,0467;0,151379
458,0109;0,15054
458,9751;0,149653
459,9394;0,149004
460,9036;0,148708
461,8678;0,148679
462,8321;0,148739
463,7963;0,148731
464,7605;0,148614
465,7248;0,148478
466,6890;0,148474
467,6532;0,148682
468,6175;0,149031
469,5817;0,149329
470,5459;0,149384
471,5102;0,149149
472,4744;0,148779
473,4386;0,148525
474,4029;0,14854
475,3671;0,148778
476,3313;0,149073
477,2956;0,149281
478,2598;0,149366
479,2240;0,149386
480,1883;0,149429
481,1525;0,149526
482,1167;0,149642
483,0810;0,149717
484,0452;0,149731
485,0094;0,149738
485,9737;0,149816
486,9379;0,150007
487,9021;0,150279
488,8664;0,150554
489,8306;0,150746
490,7948;0,150797
491,7591;0,150694
492,7233;0,150465
493,6875;0,150164
494,6518;0,149859
495,6160;0,149616
496,5802;0,149494
497,5445;0,149528
498,5087;0,149723
499,4729;0,150045
500,4372;0,150424
501,4014;0,150768
502,3656;0,150993
503,3299;0,151062
504,2941;0,151
505,2583;0,150881
506,2226;0,150781
507,1868;0,150748
508,1510;0,150783
509,1153;0,150859
510,0795;0,150961
511,0437;0,15111
512,0080;0,151356
512,9722;0,151735
513,9365;0,152235
514,9007;0,152792
515,8649;0,15331
516,8292;0,153708
517,7934;0,15395
518,7576;0,154049
519,7219;0,154035
520,6861;0,153927
521,6503;0,153732
522,6146;0,153465
523,5788;0,15316
524,5430;0,152859
525,5073;0,152594
526,4715;0,15237
527,4357;0,15217
528,4000;0,151987
529,3642;0,151841
530,3284;0,15176
531,2927;0,151751
532,2569;0,151779
533,2211;0,15177
534,1854;0,151653
535,1496;0,151396
536,1138;0,15103
537,0781;0,150623
538,0423;0,150251
539,0065;0,149959
539,9708;0,149758
540,9350;0,149633
541,8992;0,149565
542,8635;0,149541
543,8277;0,149553
544,7919;0,1496
545,7562;0,149683
546,7204;0,149803
547,6846;0,149963
548,6489;0,150165
549,6131;0,150396
550,5773;0,15063
551,5416;0,150826
552,5058;0,150947
553,4700;0,150979
554,4343;0,150948
555,3985;0,150912
556,3627;0,150931
557,3270;0,151023
558,2912;0,151139
559,2554;0,151172
560,2197;0,151
561,1839;0,150554
562,1481;0,149852
563,1124;0,148996
564,0766;0,148123
565,0408;0,147342
566,0051;0,1467
566,9693;0,14618
567,9335;0,145741
568,8978;0,14535
569,8620;0,145006
570,8262;0,144725
571,7905;0,144517
572,7547;0,144368
573,7189;0,144245
574,6832;0,144112
575,6474;0,143948
576,6116;0,143764
577,5759;0,143587
578,5401;0,143443
579,5043;0,143341
580,4686;0,143266
581,4328;0,14319
582,3970;0,14309
583,3613;0,142958
584,3255;0,142812
585,2897;0,142679
586,2540;0,142582
587,2182;0,14252
588,1824;0,142473
589,1467;0,142406
590,1109;0,142295
591,0751;0,142136
592,0394;0,141952
593,0036;0,141777
593,9678;0,141632
594,9321;0,141516
595,8963;0,141406
596,8605;0,141267
597,8248;0,141072
598,7890;0,140812
599,7532;0,140498
600,7175;0,14016
601,6817;0,139831
602,6459;0,139541
603,6102;0,139306
604,5744;0,139122
605,5386;0,138971
606,5029;0,138824
607,4671;0,138647
608,4313;0,138411
609,3956;0,138095
610,3598;0,137698
611,3240;0,137239
612,2883;0,136751
613,2525;0,136276
614,2167;0,135844
615,1810;0,135459
616,1452;0,135088
617,1094;0,134677
618,0737;0,134173
619,0379;0,133553
620,0021;0,132836
620,9664;0,132069
621,9306;0,131301
622,8948;0,130574
623,8591;0,129914
624,8233;0,129318
625,7875;0,12881
626,7518;0,128371
627,7160;0,127972
628,6802;0,127583
629,6445;0,127186
630,6087;0,126775
631,5729;0,12636
632,5372;0,125958
633,5014;0,125583
634,4656;0,125242
635,4299;0,124934
636,3941;0,12465
637,3583;0,124378
638,3226;0,124106
639,2868;0,123822
640,2510;0,12353
641,2153;0,123245
642,1795;0,122988
643,1437;0,122771
644,1080;0,122581
645,0722;0,122381
646,0364;0,122126
647,0007;0,121793
647,9649;0,121396
648,9291;0,120988
649,8934;0,120635
650,8576;0,120381
651,8218;0,12023
652,7861;0,120156
653,7503;0,120122
654,7145;0,120097
655,6788;0,120065
656,6430;0,120015
657,6072;0,119944
658,5715;0,119856
659,5357;0,119759
660,4999;0,119656
661,4642;0,119522
662,4284;0,119295
663,3926;0,118889
664,3569;0,118221
665,3211;0,117271
666,2853;0,116122
667,2496;0,114963
668,2138;0,114016
669,1780;0,113452
670,1423;0,11328
671,1065;0,11328
672,0707;0,113165
673,0350;0,112765
673,9992;0,112062
674,9634;0,111151
675,9277;0,110167
676,8919;0,109212
677,8561;0,108321
678,8204;0,107481
679,7846;0,106677
680,7488;0,105919
681,7131;0,105243
682,6773;0,104678
683,6415;0,10423
684,6058;0,103876
685,5700;0,103578
686,5342;0,103293
687,4985;0,102983
688,4627;0,102631
689,4269;0,102239
690,3912;0,101833
691,3554;0,101448
692,3196;0,101104
693,2839;0,100804
694,2481;0,100534
695,2123;0,100282
696,1766;0,100042
697,1408;0,0998141
698,1050;0,099596
699,0693;0,0993781
700,0335;0,0991489
700,9977;0,0989028
701,9620;0,0986441
702,9262;0,0983814
703,8904;0,0981132
704,8547;0,0978347
705,8189;0,0975333
706,7831;0,0971984
707,7474;0,0968283
708,7116;0,0964324
709,6758;0,0960275
710,6401;0,0956321
711,6043;0,0952624
712,5685;0,0949277
713,5328;0,0946254
714,4970;0,0943379
715,4612;0,0937286
716,4255;0,0934383
717,3897;0,0930945
718,3539;0,0926754
719,3182;0,092181
720,2824;0,0916383
721,2466;0,0910917
722,2109;0,0905816
723,1751;0,0901253
724,1393;0,0897136
725,1036;0,0893207
726,0678;0,0889201
727,0320;0,0884971
727,9963;0,0880536
728,9605;0,0876059
729,9247;0,0871757
730,8890;0,0867801
731,8532;0,0864244
732,8174;0,0861005
733,7817;0,0857916
734,7459;0,0854819
735,7101;0,0851662
736,6744;0,0848529
737,6386;0,0845596
738,6028;0,0843006
739,5671;0,0840766
740,5313;0,0838723
741,4955;0,0836637
742,4598;0,0834305
743,4240;0,0831654
744,3882;0,0828744
745,3525;0,0825707
746,3167;0,0822665
747,2809;0,0819685
748,2452;0,0816793
749,2094;0,0814006
750,1736;0,0811348
751,1379;0,0808837
752,1021;0,0806445
753,0663;0,0804092
754,0306;0,080167
754,9948;0,0799114
755,9590;0,0796459
756,9233;0,0793849
757,8875;0,0791468
758,8517;0,0789446
759,8160;0,0787776
760,7802;0,0786316
761,7444;0,0784865
762,7087;0,078327
763,6729;0,0781495
764,6371;0,0779623
765,6014;0,0777786
766,5656;0,0776105
767,5298;0,077465
768,4941;0,0773445
769,4583;0,0772484
770,4225;0,0771735
771,3868;0,0771139
772,3510;0,0770624
773,3152;0,0770153
774,2795;0,0769773
775,2437;0,0769605
776,2079;0,0769753
777,1722;0,0770168
778,1364;0,0770552
779,1006;0,0770387
780,0649;0,07691
781,0291;0,0766292
781,9933;0,0761896
782,9576;0,0756206
783,9218;0,0749744
784,8860;0,0743075
785,8503;0,0736653
786,8145;0,0730766
787,7787;0,0725575
788,7430;0,0721171
789,7072;0,0717611
790,6714;0,0714898
791,6357;0,071293
792,5999;0,0711475
793,5641;0,0710206
794,5284;0,0708797
795,4926;0,0707039
796,4568;0,0704915
797,4211;0,0702592
798,3853;0,0700326
799,3495;0,0698336
800,3138;0,0696698
801,2780;0,0695333
802,2422;0,0694068
803,2065;0,0692747
804,1707;0,0691307
805,1349;0,0689799
806,0992;0,0688335
807,0634;0,0687015
808,0276;0,068587
808,9919;0,0684859
809,9561;0,0683899
810,9203;0,0682925
811,8846;0,0681927
812,8488;0,068096
813,8130;0,0680117
814,7773;0,0679482
815,7415;0,0679073
816,7057;0,0678812
817,6700;0,0678542
818,6342;0,0678078
819,5984;0,0677277
820,5627;0,0676103
821,5269;0,0674633
822,4911;0,0673025
823,4554;0,067145
824,4196;0,0670033
825,3839;0,0668827
826,3481;0,0667826
827,3123;0,0667002
828,2766;0,0666331
829,2408;0,0665787
830,2050;0,0665312
831,1693;0,0664781
832,1335;0,0664015
833,0977;0,0662847
834,0620;0,0661213
835,0262;0,0659212
835,9904;0,0657077
836,9547;0,0655061
837,9189;0,0653307
838,8831;0,0651788
839,8474;0,0650356
840,8116;0,0648874
841,7758;0,064732
842,7401;0,0645798
843,7043;0,0644438
844,6685;0,0643286
845,6328;0,0642265
846,5970;0,0641249
847,5612;0,0640183
848,5255;0,063914
849,4897;0,0638278
850,4539;0,0637713
851,4182;0,0637427
852,3824;0,0637274
853,3466;0,0637076
854,3109;0,0636732
855,2751;0,0636259
856,2393;0,0635743
857,2036;0,0635266
858,1678;0,0634854
859,1320;0,0634499
860,0963;0,0634197
861,0605;0,0633962
862,0247;0,0633811
862,9890;0,0633732
863,9532;0,0633688
864,9174;0,063365
865,8817;0,0633647
866,8459;0,0633757
867,8101;0,0634062
868,7744;0,0634571
869,7386;0,06352
870,7028;0,0635803
871,6671;0,0636265
872,6313;0,0636575
873,5955;0,0636837
874,5598;0,0637218
875,5240;0,0637851
876,4882;0,0638774
877,4525;0,063992
878,4167;0,064117
879,3809;0,0642433
880,3452;0,0643704
881,3094;0,064508
882,2736;0,0646732
883,2379;0,0648856
884,2021;0,0651609
885,1663;0,0655066
886,1306;0,0659193
887,0948;0,0663854
888,0590;0,0668856
889,0233;0,0674018
889,9875;0,0679234
890,9517;0,0684479
891,9160;0,0689749
892,8802;0,0694956
893,8444;0,0699848
894,8087;0,0704024
895,7729;0,0707048
896,7371;0,0708606
897,7014;0,0708609
898,6656;0,070719
899,6298;0,0704602
900,5941;0,0701097
901,5583;0,0696862
902,5225;0,0692041
903,4868;0,0686796
904,4510;0,0681351
905,4152;0,0675977
906,3795;0,0670949
907,3437;0,0666487
908,3079;0,0662742
909,2722;0,0659799
910,2364;0,0657682
911,2007;0,0656355
912,1649;0,0655708
913,1292;0,0655567
914,0934;0,0655729
915,0576;0,0656011
916,0219;0,0656295
916,9861;0,0656545
917,9503;0,0656802
918,9146;0,0657159
919,8788;0,0657734
920,8430;0,065863
921,8073;0,0659892
922,7715;0,066148
923,7357;0,0663261
924,7000;0,0665051
925,6642;0,0666687
926,6284;0,0668112
927,5927;0,0669402
928,5569;0,0670722
929,5211;0,0672236
930,4854;0,0674014
931,4496;0,0676005
932,4138;0,0678095
933,3781;0,0680216
934,3423;0,0682427
935,3065;0,0684901
936,2708;0,0687831
937,2350;0,0691304
938,1992;0,0695247
939,1635;0,0699471
940,1277;0,0703803
941,0919;0,07082
942,0562;0,0712789
943,0204;0,0717802
943,9846;0,0723464
944,9489;0,0729895
945,9131;0,0737091
946,8773;0,0744958
947,8416;0,0753376
948,8058;0,0762248
949,7700;0,0771517
950,7343;0,0781162
951,6985;0,0791171
952,6627;0,0801516
953,6270;0,0812124
954,5912;0,082288
955,5554;0,0833663
956,5197;0,0844398
957,4839;0,0855096
958,4481;0,0865829
959,4124;0,087667
960,3766;0,0887613
961,3408;0,0898564
962,3051;0,0909387
963,2693;0,0920002
964,2335;0,0930442
965,1978;0,0940829
966,1620;0,09513
967,1262;0,0961924
968,0905;0,0972695
969,0547;0,0983585
970,0189;0,0994619
970,9832;0,100591
971,9474;0,101764
972,9116;0,102999
973,8759;0,104309
974,8401;0,105702
975,8043;0,107184
976,7686;0,10876
977,7328;0,110434
978,6970;0,112199
979,6613;0,114035
980,6255;0,115901
981,5897;0,117742
982,5540;0,119494
983,5182;0,121106
984,4824;0,122547
985,4467;0,123813
986,4109;0,124924
987,3751;0,125911
988,3394;0,126806
989,3036;0,12763
990,2678;0,128392
991,2321;0,129097
992,1963;0,129752
993,1605;0,130368
994,1248;0,13096
995,0890;0,131551
996,0532;0,132157
997,0175;0,132791
997,9817;0,13346
998,9459;0,134162
999,9102;0,13489
1000,8744;0,135635
1001,8386;0,136391
1002,8029;0,137159
1003,7671;0,137945
1004,7313;0,13876
1005,6956;0,139619
1006,6598;0,140541
1007,6240;0,141542
1008,5883;0,142642
1009,5525;0,143854
1010,5167;0,145177
1011,4810;0,146599
1012,4452;0,148092
1013,4094;0,14962
1014,3737;0,151153
1015,3379;0,152666
1016,3021;0,154147
1017,2664;0,15559
1018,2306;0,156993
1019,1948;0,158356
1020,1591;0,159681
1021,1233;0,160975
1022,0875;0,162244
1023,0518;0,163493
1024,0160;0,16472
1024,9802;0,165915
1025,9445;0,167066
1026,9087;0,168156
1027,8729;0,169163
1028,8372;0,170058
1029,8014;0,170799
1030,7656;0,171333
1031,7299;0,171603
1032,6941;0,171567
1033,6583;0,171205
1034,6226;0,170536
1035,5868;0,169613
1036,5510;0,168515
1037,5153;0,167337
1038,4795;0,166171
1039,4437;0,165095
1040,4080;0,16417
1041,3722;0,163428
1042,3364;0,162874
1043,3007;0,162482
1044,2649;0,1622
1045,2291;0,161962
1046,1934;0,161697
1047,1576;0,16135
1048,1218;0,160883
1049,0861;0,160285
1050,0503;0,159556
1051,0145;0,158706
1051,9788;0,157738
1052,9430;0,156659
1053,9072;0,155473
1054,8715;0,154189
1055,8357;0,152815
1056,7999;0,151344
1057,7642;0,149755
1058,7284;0,14801
1059,6926;0,146079
1060,6569;0,143958
1061,6211;0,141684
1062,5853;0,139333
1063,5496;0,137
1064,5138;0,13477
1065,4780;0,132702
1066,4423;0,130827
1067,4065;0,129149
1068,3707;0,127658
1069,3350;0,126335
1070,2992;0,125155
1071,2634;0,124083
1072,2277;0,123077
1073,1919;0,122096
1074,1561;0,121106
1075,1204;0,120088
1076,0846;0,119035
1077,0488;0,117951
1078,0131;0,116851
1078,9773;0,115758
1079,9415;0,1147
1080,9058;0,113706
1081,8700;0,112802
1082,8342;0,112004
1083,7985;0,111313
1084,7627;0,110711
1085,7269;0,110174
1086,6912;0,109672
1087,6554;0,109188
1088,6196;0,108717
1089,5839;0,108268
1090,5481;0,107857
1091,5123;0,107494
1092,4766;0,107179
1093,4408;0,106901
1094,4050;0,10665
1095,3693;0,10642
1096,3335;0,10622
1097,2977;0,106069
1098,2620;0,105984
1099,2262;0,105971
1100,1904;0,106017
1101,1547;0,106097
1102,1189;0,106176
1103,0831;0,106222
1104,0474;0,106212
1105,0116;0,106137
1105,9758;0,105998
1106,9401;0,105799
1107,9043;0,105545
1108,8685;0,105228
1109,8328;0,10483
1110,7970;0,10432
1111,7612;0,103675
1112,7255;0,102889
1113,6897;0,101983
1114,6539;0,101008
1115,6182;0,100026
1116,5824;0,0990936
1117,5466;0,0982441
1118,5109;0,0974786
1119,4751;0,0967715
1120,4393;0,0960802
1121,4036;0,0953574
1122,3678;0,0945607
1123,3320;0,0936574
1124,2963;0,0926277
1125,2605;0,0914658
1126,2247;0,0901813
1127,1890;0,0887969
1128,1532;0,0873457
1129,1174;0,085865
1130,0817;0,0843899
1131,0459;0,0829495
1132,0101;0,0815652
1132,9744;0,0802532
1133,9386;0,0790283
1134,9028;0,0779069
1135,8671;0,0769078
1136,8313;0,0760497
1137,7955;0,0753464
1138,7598;0,0748037
1139,7240;0,0744169
1140,6882;0,0741725
1141,6525;0,074051
1142,6167;0,074031
1143,5809;0,0740928
1144,5452;0,0742215
1145,5094;0,0744082
1146,4736;0,0746495
1147,4379;0,0749441
1148,4021;0,0752892
1149,3663;0,0756774
1150,3306;0,0760958
1151,2948;0,0765281
1152,2590;0,0769578
1153,2233;0,0773696
1154,1875;0,0777478
1155,1517;0,0780727
1156,1160;0,0783182
1157,0802;0,0784512
1158,0444;0,0784354
1159,0087;0,0782362
1159,9729;0,0778247
1160,9371;0,0771817
1161,9014;0,0762998
1162,8656;0,0751859
1163,8298;0,0738638
1164,7941;0,0723738
1165,7583;0,0707704
1166,7225;0,0691151
1167,6868;0,0674679
1168,6510;0,0658785
1169,6152;0,0643824
1170,5795;0,0630002
1171,5437;0,0617418
1172,5079;0,060611
1173,4722;0,0596093
1174,4364;0,0587355
1175,4006;0,0579839
1176,3649;0,0573429
1177,3291;0,0567956
1178,2933;0,0563232
1179,2576;0,0559093
1180,2218;0,0555421
1181,1860;0,0552159
1182,1503;0,0549301
1183,1145;0,0546886
1184,0787;0,0544992
1185,0430;0,0543724
1186,0072;0,0543188
1186,9714;0,0543446
1187,9357;0,0544475
1188,8999;0,0546165
1189,8641;0,0548358
1190,8284;0,0550912
1191,7926;0,0553765
1192,7568;0,0556952
1193,7211;0,056057
1194,6853;0,0564703
1195,6495;0,0569355
1196,6138;0,0574416
1197,5780;0,0579691
1198,5422;0,0584964
1199,5065;0,0589475
1200,4707;0,0594463
1201,4349;0,0599305
1202,3992;0,0604089
1203,3634;0,060887
1204,3276;0,061363
1205,2919;0,0618293
1206,2561;0,0622789
1207,2203;0,0627118
1208,1846;0,0631381
1209,1488;0,0635751
1210,1130;0,0640412
1211,0773;0,0645484
1212,0415;0,065099
1213,0057;0,065686
1213,9700;0,0662964
1214,9342;0,0669158
1215,8984;0,0675318
1216,8627;0,068135
1217,8269;0,0687189
1218,7911;0,0692801
1219,7554;0,069817
1220,7196;0,0703285
1221,6838;0,0708141
1222,6481;0,0712741
1223,6123;0,0717105
1224,5765;0,0721262
1225,5408;0,0725239
1226,5050;0,0729034
1227,4692;0,0732611
1228,4335;0,0735912
1229,3977;0,0738889
1230,3619;0,0741535
1231,3262;0,0743884
1232,2904;0,0745991
1233,2546;0,0747898
1234,2189;0,0749621
1235,1831;0,0751152
1236,1473;0,0752488
1237,1116;0,0753641
1238,0758;0,0754631
1239,0400;0,0755458
1240,0043;0,0756083
1240,9685;0,0756427
1241,9327;0,0756397
1242,8970;0,0755925
1243,8612;0,0754989
1244,8254;0,075361
1245,7897;0,0751832
1246,7539;0,0749702
1247,7181;0,0747261
1248,6824;0,0744555
1249,6466;0,0741643
1250,6108;0,0738608
1251,5751;0,0735543
1252,5393;0,0732532
1253,5035;0,0729614
1254,4678;0,0726766
1255,4320;0,0723901
1256,3962;0,0720891
1257,3605;0,0717619
1258,3247;0,0714022
1259,2889;0,0710116
1260,2532;0,0705981
1261,2174;0,0701714
1262,1816;0,0697383
1263,1459;0,0692998
1264,1101;0,068852
1265,0743;0,0683886
1266,0386;0,0679029
1267,0028;0,067389
1267,9670;0,0668428
1268,9313;0,0662646
1269,8955;0,0656609
1270,8597;0,0650444
1271,8240;0,0644306
1272,7882;0,0638313
1273,7524;0,0632502
1274,7167;0,0626843
1275,6809;0,0621287
1276,6451;0,0615832
1277,6094;0,0610538
1278,5736;0,0605502
1279,5378;0,0600793
1280,5021;0,0596411
1281,4663;0,0592297
1282,4305;0,0588377
1283,3948;0,0584618
1284,3590;0,0581052
1285,3232;0,0577762
1286,2875;0,0574846
1287,2517;0,0572387
1288,2159;0,0570431
1289,1802;0,0568982
1290,1444;0,0568016
1291,1086;0,0567484
1292,0729;0,0567338
1293,0371;0,0567539
1294,0013;0,0568077
1294,9656;0,0568966
1295,9298;0,0570243
1296,8940;0,0571954
1297,8583;0,0574137
1298,8225;0,0576815
1299,7867;0,0579979
1300,7510;0,0583585
1301,7152;0,0587561
1302,6794;0,0591824
1303,6437;0,0596309
1304,6079;0,0600997
1305,5721;0,0605912
1306,5364;0,0611097
1307,5006;0,0616591
1308,4648;0,0622409
1309,4291;0,0628537
1310,3933;0,0634924
1311,3575;0,0641454
1312,3218;0,0647909
1313,2860;0,0653962
1314,2502;0,0659202
1315,2145;0,0663204
1316,1787;0,0665609
1317,1429;0,0666199
1318,1072;0,0664984
1319,0714;0,066225
1320,0356;0,0658512
1320,9999;0,0654358
1321,9641;0,0650271
1322,9283;0,0646538
1323,8926;0,0643259
1324,8568;0,0640421
1325,8210;0,0637963
1326,7853;0,063581
1327,7495;0,0633884
1328,7137;0,0632106
1329,6780;0,0630385
1330,6422;0,0628635
1331,6064;0,0626782
1332,5707;0,0624783
1333,5349;0,0622621
1334,4991;0,0620279
1335,4634;0,0617701
1336,4276;0,0614783
1337,3918;0,0611406
1338,3561;0,0607553
1339,3203;0,0603426
1340,2845;0,0599434
1341,2488;0,0595982
1342,2130;0,0593255
1343,1772;0,0591204
1344,1415;0,058967
1345,1057;0,0588514
1346,0699;0,0587676
1347,0342;0,0587169
1347,9984;0,0587063
1348,9626;0,0587438
1349,9269;0,0588337
1350,8911;0,0589734
1351,8553;0,059154
1352,8196;0,0593649
1353,7838;0,0596007
1354,7480;0,0598635
1355,7123;0,0601593
1356,6765;0,0604891
