TITLE;
DATA TYPE;INFRARED SPECTRUM
ORIGIN;JASCO
OWNER;
DATE;25/02/04
TIME;13:58:08
SPECTROMETER/DATA SYSTEM;
LOCALE;9226
RESOLUTION;
DELTAX;0,964233
XUNITS;1/CM
YUNITS;ABSORBANCE
FIRSTX;  399,1927
LASTX; 4000,6047
NPOINTS;    3736
FIRSTY;     0,14305
MAXY;     0,22404
MINY;     0,01166
XYDATA
399,1927;0,14305
400,1569;0,143911
401,1211;0,14452
402,0854;0,144756
403,0496;0,144719
404,0138;0,144615
404,9781;0,144644
405,9423;0,144886
406,9065;0,145256
407,8708;0,145583
408,8350;0,145758
409,7992;0,145842
410,7635;0,146036
411,7277;0,146529
412,6919;0,147338
413,6562;0,148283
414,6204;0,149108
415,5846;0,149611
416,5489;0,149734
417,5131;0,149631
418,4773;0,149665
419,4416;0,150164
420,4058;0,151099
421,3700;0,152182
422,3343;0,153195
423,2985;0,154095
424,2627;0,154921
425,2270;0,155694
426,1912;0,156363
427,1554;0,156834
428,1197;0,157053
429,0839;0,157069
430,0481;0,157039
431,0124;0,157165
431,9766;0,157596
432,9408;0,158342
433,9051;0,159264
434,8693;0,160139
435,8335;0,160759
436,7978;0,161023
437,7620;0,160953
438,7262;0,16066
439,6905;0,16028
440,6547;0,15994
441,6189;0,159736
442,5832;0,159702
443,5474;0,159785
444,5116;0,159858
445,4759;0,159782
446,4401;0,159488
447,4043;0,159014
448,3686;0,158472
449,3328;0,157999
450,2970;0,1577
451,2613;0,157608
452,2255;0,157674
453,1897;0,157795
454,1540;0,157851
455,1182;0,157748
456,0824;0,157449
457,0467;0,157003
458,0109;0,156541
458,9751;0,156202
459,9394;0,156043
460,9036;0,156023
461,8678;0,156063
462,8321;0,156103
463,7963;0,156135
464,7605;0,156178
465,7248;0,15625
466,6890;0,156333
467,6532;0,156385
468,6175;0,156365
469,5817;0,156264
470,5459;0,156118
471,5102;0,155989
472,4744;0,155933
473,4386;0,155971
474,4029;0,156083
475,3671;0,15624
476,3313;0,156417
477,2956;0,156601
478,2598;0,156774
479,2240;0,156909
480,1883;0,156975
481,1525;0,156955
482,1167;0,15687
483,0810;0,156784
484,0452;0,156791
485,0094;0,156975
485,9737;0,157365
486,9379;0,157914
487,9021;0,158522
488,8664;0,159075
489,8306;0,159485
490,7948;0,159716
491,7591;0,1598
492,7233;0,159819
493,6875;0,159861
494,6518;0,15998
495,6160;0,160172
496,5802;0,160396
497,5445;0,160604
498,5087;0,160766
499,4729;0,160884
500,4372;0,160991
501,4014;0,161128
502,3656;0,161332
503,3299;0,161612
504,2941;0,161952
505,2583;0,162322
506,2226;0,162692
507,1868;0,163042
508,1510;0,163363
509,1153;0,163666
510,0795;0,163975
511,0437;0,164322
512,0080;0,164736
512,9722;0,165231
513,9365;0,165793
514,9007;0,166384
515,8649;0,16694
516,8292;0,167394
517,7934;0,167698
518,7576;0,167843
519,7219;0,16787
520,6861;0,16784
521,6503;0,167811
522,6146;0,167824
523,5788;0,167896
524,5430;0,168016
525,5073;0,168147
526,4715;0,168234
527,4357;0,168226
528,4000;0,168108
529,3642;0,167901
530,3284;0,167653
531,2927;0,167414
532,2569;0,167213
533,2211;0,167053
534,1854;0,16691
535,1496;0,166755
536,1138;0,166578
537,0781;0,166395
538,0423;0,166249
539,0065;0,16619
539,9708;0,166254
540,9350;0,166451
541,8992;0,166756
542,8635;0,167119
543,8277;0,167476
544,7919;0,167775
545,7562;0,168003
546,7204;0,168194
547,6846;0,168418
548,6489;0,168744
549,6131;0,169204
550,5773;0,169774
551,5416;0,17039
552,5058;0,170985
553,4700;0,171523
554,4343;0,171997
555,3985;0,172411
556,3627;0,172739
557,3270;0,172912
558,2912;0,172833
559,2554;0,172412
560,2197;0,171611
561,1839;0,170469
562,1481;0,169089
563,1124;0,167614
564,0766;0,166179
565,0408;0,164892
566,0051;0,163814
566,9693;0,162965
567,9335;0,162322
568,8978;0,161833
569,8620;0,161429
570,8262;0,161049
571,7905;0,160666
572,7547;0,160287
573,7189;0,159945
574,6832;0,159676
575,6474;0,159501
576,6116;0,159411
577,5759;0,159377
578,5401;0,15936
579,5043;0,159327
580,4686;0,159258
581,4328;0,159145
582,3970;0,158996
583,3613;0,158837
584,3255;0,158706
585,2897;0,158637
586,2540;0,158642
587,2182;0,158701
588,1824;0,158772
589,1467;0,158811
590,1109;0,158793
591,0751;0,158717
592,0394;0,158596
593,0036;0,15844
593,9678;0,158247
594,9321;0,158008
595,8963;0,15772
596,8605;0,15739
597,8248;0,157032
598,7890;0,156661
599,7532;0,156286
600,7175;0,155913
601,6817;0,155556
602,6459;0,155232
603,6102;0,154951
604,5744;0,154708
605,5386;0,154473
606,5029;0,154203
607,4671;0,153858
608,4313;0,153416
609,3956;0,152883
610,3598;0,152288
611,3240;0,151672
612,2883;0,151078
613,2525;0,150536
614,2167;0,150047
615,1810;0,149575
616,1452;0,149047
617,1094;0,148384
618,0737;0,147536
619,0379;0,146515
620,0021;0,145385
620,9664;0,14423
621,9306;0,143118
622,8948;0,142088
623,8591;0,141154
624,8233;0,14031
625,7875;0,139556
626,7518;0,138877
627,7160;0,138256
628,6802;0,137668
629,6445;0,137091
630,6087;0,136513
631,5729;0,135931
632,5372;0,135348
633,5014;0,134772
634,4656;0,134211
635,4299;0,133675
636,3941;0,133177
637,3583;0,132727
638,3226;0,132327
639,2868;0,131962
640,2510;0,131603
641,2153;0,131216
642,1795;0,130784
643,1437;0,130318
644,1080;0,12985
645,0722;0,129426
646,0364;0,129075
647,0007;0,128803
647,9649;0,128589
648,9291;0,128404
649,8934;0,128235
650,8576;0,12809
651,8218;0,128001
652,7861;0,128004
653,7503;0,128122
654,7145;0,12836
655,6788;0,128696
656,6430;0,129086
657,6072;0,129478
658,5715;0,129812
659,5357;0,130033
660,4999;0,130113
661,4642;0,130068
662,4284;0,129959
663,3926;0,129858
664,3569;0,129808
665,3211;0,129808
666,2853;0,12977
667,2496;0,129455
668,2138;0,128547
669,1780;0,127065
670,1423;0,125468
671,1065;0,124071
672,0707;0,122831
673,0350;0,121588
673,9992;0,12023
674,9634;0,11874
675,9277;0,117188
676,8919;0,11567
677,8561;0,114253
678,8204;0,112954
679,7846;0,111772
680,7488;0,110717
681,7131;0,109804
682,6773;0,109032
683,6415;0,108373
684,6058;0,107789
685,5700;0,107252
686,5342;0,106757
687,4985;0,106308
688,4627;0,105909
689,4269;0,105551
690,3912;0,105213
691,3554;0,104872
692,3196;0,104514
693,2839;0,10414
694,2481;0,103764
695,2123;0,103409
696,1766;0,103092
697,1408;0,102814
698,1050;0,102554
699,0693;0,102281
700,0335;0,101966
700,9977;0,101601
701,9620;0,101196
702,9262;0,100769
703,8904;0,100329
704,8547;0,0998736
705,8189;0,0993923
706,7831;0,0988773
707,7474;0,0983316
708,7116;0,0977674
709,6758;0,0971971
710,6401;0,0966232
711,6043;0,096037
712,5685;0,0954253
713,5328;0,0947833
714,4970;0,0941209
715,4612;0,0933867
716,4255;0,0927559
717,3897;0,0921426
718,3539;0,0915125
719,3182;0,0908162
720,2824;0,0900175
721,2466;0,0891185
722,2109;0,0881616
723,1751;0,0872046
724,1393;0,0862919
725,1036;0,0854411
726,0678;0,0846469
727,0320;0,0838954
727,9963;0,0831755
728,9605;0,0824832
729,9247;0,0818182
730,8890;0,0811805
731,8532;0,08057
732,8174;0,0799886
733,7817;0,0794413
734,7459;0,0789339
735,7101;0,0784672
736,6744;0,0780348
737,6386;0,0776256
738,6028;0,0772296
739,5671;0,0768421
740,5313;0,0764641
741,4955;0,0760968
742,4598;0,0757369
743,4240;0,0753763
744,3882;0,0750052
745,3525;0,0746183
746,3167;0,0742158
747,2809;0,0738016
748,2452;0,0733797
749,2094;0,0729529
750,1736;0,0725245
751,1379;0,0721013
752,1021;0,0716922
753,0663;0,0713029
754,0306;0,0709296
754,9948;0,0705593
755,9590;0,0701761
756,9233;0,0697726
757,8875;0,0693561
758,8517;0,0689458
759,8160;0,0685615
760,7802;0,0682125
761,7444;0,0678922
762,7087;0,0675845
763,6729;0,0672747
764,6371;0,0669598
765,6014;0,0666489
766,5656;0,0663567
767,5298;0,0660925
768,4941;0,0658537
769,4583;0,0656267
770,4225;0,0653949
771,3868;0,0651473
772,3510;0,0648841
773,3152;0,0646147
774,2795;0,0643511
775,2437;0,0641012
776,2079;0,0638658
777,1722;0,0636401
778,1364;0,0634178
779,1006;0,0631941
780,0649;0,0629669
781,0291;0,0627352
781,9933;0,0624979
782,9576;0,0622539
783,9218;0,0620028
784,8860;0,0617473
785,8503;0,0614929
786,8145;0,0612473
787,7787;0,0610187
788,7430;0,0608134
789,7072;0,0606336
790,6714;0,0604758
791,6357;0,0603321
792,5999;0,0601924
793,5641;0,0600487
794,5284;0,0598978
795,4926;0,0597426
796,4568;0,0595899
797,4211;0,0594468
798,3853;0,0593186
799,3495;0,0592057
800,3138;0,0591045
801,2780;0,0590083
802,2422;0,05891
803,2065;0,0588055
804,1707;0,058696
805,1349;0,0585878
806,0992;0,0584896
807,0634;0,0584077
808,0276;0,0583424
808,9919;0,0582884
809,9561;0,0582379
810,9203;0,0581863
811,8846;0,0581342
812,8488;0,0580869
813,8130;0,05805
814,7773;0,0580256
815,7415;0,0580106
816,7057;0,0579984
817,6700;0,057983
818,6342;0,0579623
819,5984;0,0579404
820,5627;0,0579256
821,5269;0,0579265
822,4911;0,0579459
823,4554;0,0579784
824,4196;0,0580109
825,3839;0,0580284
826,3481;0,0580216
827,3123;0,0579908
828,2766;0,0579442
829,2408;0,0578918
830,2050;0,0578382
831,1693;0,0577804
832,1335;0,0577106
833,0977;0,0576216
834,0620;0,0575103
835,0262;0,0573774
835,9904;0,057225
836,9547;0,0570551
837,9189;0,0568708
838,8831;0,0566785
839,8474;0,0564879
840,8116;0,0563094
841,7758;0,05615
842,7401;0,0560116
843,7043;0,0558923
844,6685;0,0557897
845,6328;0,0557032
846,5970;0,0556332
847,5612;0,0555797
848,5255;0,0555399
849,4897;0,0555095
850,4539;0,0554838
851,4182;0,0554587
852,3824;0,0554296
853,3466;0,0553909
854,3109;0,0553376
855,2751;0,0552688
856,2393;0,0551915
857,2036;0,0551205
858,1678;0,0550731
859,1320;0,0550617
860,0963;0,0550881
861,0605;0,0551437
862,0247;0,0552147
862,9890;0,0552897
863,9532;0,0553652
864,9174;0,055446
865,8817;0,0555419
866,8459;0,0556639
867,8101;0,0558196
868,7744;0,0560118
869,7386;0,0562374
870,7028;0,0564884
871,6671;0,0567536
872,6313;0,0570211
873,5955;0,0572816
874,5598;0,0575301
875,5240;0,0577671
876,4882;0,0579961
877,4525;0,0582217
878,4167;0,0584494
879,3809;0,0586862
880,3452;0,0589448
881,3094;0,0592442
882,2736;0,0596078
883,2379;0,0600572
884,2021;0,0606047
885,1663;0,0612486
886,1306;0,0619734
887,0948;0,0627562
888,0590;0,0635735
889,0233;0,0644066
889,9875;0,0652411
890,9517;0,0660631
891,9160;0,0668541
892,8802;0,0675897
893,8444;0,0682411
894,8087;0,0687817
895,7729;0,0691923
896,7371;0,0694636
897,7014;0,0695942
898,6656;0,0695872
899,6298;0,069447
900,5941;0,0691809
901,5583;0,0688034
902,5225;0,0683399
903,4868;0,0678272
904,4510;0,0673081
905,4152;0,0668226
906,3795;0,0664004
907,3437;0,0660578
908,3079;0,0657988
909,2722;0,0656191
910,2364;0,0655096
911,2007;0,0654588
912,1649;0,0654556
913,1292;0,0654921
914,0934;0,0655659
915,0576;0,0656807
916,0219;0,0658428
916,9861;0,0660549
917,9503;0,0663125
918,9146;0,0666023
919,8788;0,0669071
920,8430;0,0672114
921,8073;0,0675061
922,7715;0,0677889
923,7357;0,0680615
924,7000;0,0683261
925,6642;0,0685828
926,6284;0,0688288
927,5927;0,0690594
928,5569;0,0692696
929,5211;0,0694572
930,4854;0,0696243
931,4496;0,0697795
932,4138;0,0699373
933,3781;0,0701159
934,3423;0,0703339
935,3065;0,0706067
936,2708;0,0709449
937,2350;0,0713528
938,1992;0,071829
939,1635;0,0723683
940,1277;0,0729635
941,0919;0,0736085
942,0562;0,0743014
943,0204;0,0750446
943,9846;0,0758442
944,9489;0,0767057
945,9131;0,0776321
946,8773;0,0786219
947,8416;0,0796712
948,8058;0,0807768
949,7700;0,0819391
950,7343;0,0831625
951,6985;0,0844529
952,6627;0,0858146
953,6270;0,0872467
954,5912;0,0887435
955,5554;0,0902972
956,5197;0,0919023
957,4839;0,0935592
958,4481;0,095273
959,4124;0,0970494
960,3766;0,0988886
961,3408;0,100782
962,3051;0,102712
963,2693;0,104662
964,2335;0,106619
965,1978;0,108582
966,1620;0,110561
967,1262;0,112572
968,0905;0,114638
969,0547;0,116784
970,0189;0,119034
970,9832;0,121418
971,9474;0,123966
972,9116;0,126706
973,8759;0,129662
974,8401;0,132851
975,8043;0,136274
976,7686;0,139917
977,7328;0,143738
978,6970;0,147671
979,6613;0,15162
980,6255;0,155466
981,5897;0,159084
982,5540;0,162366
983,5182;0,165238
984,4824;0,16768
985,4467;0,169722
986,4109;0,171432
987,3751;0,172894
988,3394;0,174189
989,3036;0,175372
990,2678;0,176475
991,2321;0,177502
992,1963;0,17845
993,1605;0,17931
994,1248;0,180088
995,0890;0,180796
996,0532;0,181458
997,0175;0,182091
997,9817;0,182703
998,9459;0,183293
999,9102;0,183861
1000,8744;0,184421
1001,8386;0,185005
1002,8029;0,185663
1003,7671;0,186444
1004,7313;0,187386
1005,6956;0,188511
1006,6598;0,189825
1007,6240;0,191326
1008,5883;0,193008
1009,5525;0,194852
1010,5167;0,196823
1011,4810;0,198866
1012,4452;0,200921
1013,4094;0,20293
1014,3737;0,204857
1015,3379;0,206683
1016,3021;0,208405
1017,2664;0,210021
1018,2306;0,211526
1019,1948;0,212917
1020,1591;0,214199
1021,1233;0,215392
1022,0875;0,216526
1023,0518;0,217631
1024,0160;0,218728
1024,9802;0,219816
1025,9445;0,220874
1026,9087;0,221865
1027,8729;0,222739
1028,8372;0,223439
1029,8014;0,223899
1030,7656;0,224041
1031,7299;0,223781
1032,6941;0,223044
1033,6583;0,22179
1034,6226;0,220035
1035,5868;0,217864
1036,5510;0,21543
1037,5153;0,212925
1038,4795;0,210545
1039,4437;0,208458
1040,4080;0,206777
1041,3722;0,205554
1042,3364;0,204773
1043,3007;0,204371
1044,2649;0,204252
1045,2291;0,204307
1046,1934;0,204435
1047,1576;0,204554
1048,1218;0,204603
1049,0861;0,204535
1050,0503;0,204311
1051,0145;0,203891
1051,9788;0,203241
1052,9430;0,202343
1053,9072;0,201192
1054,8715;0,199795
1055,8357;0,198147
1056,7999;0,196216
1057,7642;0,193938
1058,7284;0,191247
1059,6926;0,188109
1060,6569;0,184558
1061,6211;0,180711
1062,5853;0,176741
1063,5496;0,172832
1064,5138;0,169133
1065,4780;0,16573
1066,4423;0,162643
1067,4065;0,159852
1068,3707;0,157315
1069,3350;0,154988
1070,2992;0,152827
1071,2634;0,150786
1072,2277;0,148812
1073,1919;0,146851
1074,1561;0,144856
1075,1204;0,142796
1076,0846;0,140667
1077,0488;0,138491
1078,0131;0,136316
1078,9773;0,134209
1079,9415;0,132238
1080,9058;0,130467
1081,8700;0,128933
1082,8342;0,127644
1083,7985;0,126579
1084,7627;0,125698
1085,7269;0,124962
1086,6912;0,124342
1087,6554;0,123829
1088,6196;0,123429
1089,5839;0,123153
1090,5481;0,12301
1091,5123;0,123
1092,4766;0,123114
1093,4408;0,123333
1094,4050;0,12364
1095,3693;0,124016
1096,3335;0,124445
1097,2977;0,124917
1098,2620;0,125417
1099,2262;0,125926
1100,1904;0,126416
1101,1547;0,126848
1102,1189;0,127184
1103,0831;0,127391
1104,0474;0,127459
1105,0116;0,127399
1105,9758;0,127234
1106,9401;0,126988
1107,9043;0,126665
1108,8685;0,126237
1109,8328;0,125647
1110,7970;0,124827
1111,7612;0,123721
1112,7255;0,122313
1113,6897;0,120646
1114,6539;0,118814
1115,6182;0,116938
1116,5824;0,115137
1117,5466;0,113489
1118,5109;0,112022
1119,4751;0,110704
1120,4393;0,109464
1121,4036;0,10821
1122,3678;0,106856
1123,3320;0,105338
1124,2963;0,103625
1125,2605;0,101724
1126,2247;0,0996728
1127,1890;0,0975236
1128,1532;0,0953299
1129,1174;0,0931327
1130,0817;0,0909564
1131,0459;0,0888141
1132,0101;0,0867181
1132,9744;0,0846912
1133,9386;0,0827701
1134,9028;0,0810029
1135,8671;0,0794397
1136,8313;0,0781216
1137,7955;0,0770735
1138,7598;0,0763006
1139,7240;0,075791
1140,6882;0,0755204
1141,6525;0,0754574
1142,6167;0,0755678
1143,5809;0,0758175
1144,5452;0,076175
1145,5094;0,0766137
1146,4736;0,0771154
1147,4379;0,0776712
1148,4021;0,0782814
1149,3663;0,0789499
1150,3306;0,0796769
1151,2948;0,0804522
1152,2590;0,0812525
1153,2233;0,0820441
1154,1875;0,0827881
1155,1517;0,0834446
1156,1160;0,0839715
1157,0802;0,0843207
1158,0444;0,084433
1159,0087;0,0842383
1159,9729;0,0836619
1160,9371;0,082638
1161,9014;0,0811261
1162,8656;0,0791235
1163,8298;0,0766729
1164,7941;0,0738601
1165,7583;0,0708045
1166,7225;0,0676432
1167,6868;0,0645114
1168,6510;0,0615245
1169,6152;0,0587646
1170,5795;0,0562767
1171,5437;0,054073
1172,5079;0,0521435
1173,4722;0,0504675
1174,4364;0,0490208
1175,4006;0,0477789
1176,3649;0,0467183
1177,3291;0,0458163
1178,2933;0,0450531
1179,2576;0,0444122
1180,2218;0,0438802
1181,1860;0,0434441
1182,1503;0,0430902
1183,1145;0,0428047
1184,0787;0,0425785
1185,0430;0,0424108
1186,0072;0,0423104
1186,9714;0,0422911
1187,9357;0,0423648
1188,8999;0,0425359
1189,8641;0,0428002
1190,8284;0,0431478
1191,7926;0,0435686
1192,7568;0,044055
1193,7211;0,0446011
1194,6853;0,0452005
1195,6495;0,0458435
1196,6138;0,0465175
1197,5780;0,0472088
1198,5422;0,0479043
1199,5065;0,0485762
1200,4707;0,0492485
1201,4349;0,0498933
1202,3992;0,0505008
1203,3634;0,0510624
1204,3276;0,051571
1205,2919;0,0520229
1206,2561;0,0524183
1207,2203;0,0527649
1208,1846;0,0530798
1209,1488;0,0533907
1210,1130;0,0537327
1211,0773;0,0541409
1212,0415;0,0546406
1213,0057;0,0552401
1213,9700;0,0559298
1214,9342;0,0566882
1215,8984;0,0574906
1216,8627;0,0583161
1217,8269;0,0591498
1218,7911;0,059981
1219,7554;0,0607999
1220,7196;0,0615962
1221,6838;0,0623604
1222,6481;0,0630856
1223,6123;0,0637687
1224,5765;0,0644093
1225,5408;0,065008
1226,5050;0,0655656
1227,4692;0,0660829
1228,4335;0,0665615
1229,3977;0,0670025
1230,3619;0,0674046
1231,3262;0,0677617
1232,2904;0,0680634
1233,2546;0,0682989
1234,2189;0,0684627
1235,1831;0,06856
1236,1473;0,0686061
1237,1116;0,0686209
1238,0758;0,0686205
1239,0400;0,0686114
1240,0043;0,0685895
1240,9685;0,0685441
1241,9327;0,068464
1242,8970;0,0683418
1243,8612;0,0681749
1244,8254;0,067964
1245,7897;0,0677116
1246,7539;0,0674217
1247,7181;0,0671
1248,6824;0,0667535
1249,6466;0,0663901
1250,6108;0,0660176
1251,5751;0,0656441
1252,5393;0,0652784
1253,5035;0,0649295
1254,4678;0,0646041
1255,4320;0,0643022
1256,3962;0,0640155
1257,3605;0,0637284
1258,3247;0,0634237
1259,2889;0,0630886
1260,2532;0,0627195
1261,2174;0,0623211
1262,1816;0,0619023
1263,1459;0,0614712
1264,1101;0,0610307
1265,0743;0,0605786
1266,0386;0,0601092
1267,0028;0,0596166
1267,9670;0,0590977
1268,9313;0,0585548
1269,8955;0,0579951
1270,8597;0,0574277
1271,8240;0,0568596
1272,7882;0,0562935
1273,7524;0,0557294
1274,7167;0,0551686
1275,6809;0,0546174
1276,6451;0,0540855
1277,6094;0,0535809
1278,5736;0,053103
1279,5378;0,0526404
1280,5021;0,0521753
1281,4663;0,0516928
1282,4305;0,0511886
1283,3948;0,0506719
1284,3590;0,050161
1285,3232;0,0496774
1286,2875;0,04924
1287,2517;0,0488625
1288,2159;0,0485525
1289,1802;0,0483112
1290,1444;0,0481345
1291,1086;0,0480148
1292,0729;0,0479456
1293,0371;0,0479247
1294,0013;0,0479569
1294,9656;0,0480523
1295,9298;0,0482221
1296,8940;0,0484738
1297,8583;0,048808
1298,8225;0,0492189
1299,7867;0,0496958
1300,7510;0,0502275
1301,7152;0,0508052
1302,6794;0,0514245
1303,6437;0,0520855
1304,6079;0,05279
1305,5721;0,0535372
1306,5364;0,0543203
1307,5006;0,0551263
1308,4648;0,0559396
1309,4291;0,0567455
1310,3933;0,0575309
1311,3575;0,0582814
1312,3218;0,0589772
1313,2860;0,0595923
1314,2502;0,0600977
1315,2145;0,0604669
1316,1787;0,0606804
1317,1429;0,0607312
1318,1072;0,060629
1319,0714;0,0604034
1320,0356;0,0600989
1320,9999;0,0597626
1321,9641;0,0594309
1322,9283;0,0591239
1323,8926;0,0588497
1324,8568;0,058611
1325,8210;0,0584111
1326,7853;0,0582545
1327,7495;0,0581432
1328,7137;0,0580728
1329,6780;0,0580292
1330,6422;0,0579901
1331,6064;0,0579304
1332,5707;0,0578271
1333,5349;0,0576633
1334,4991;0,0574248
1335,4634;0,0570964
1336,4276;0,0566601
1337,3918;0,056106
1338,3561;0,0554511
1339,3203;0,0547515
1340,2845;0,054085
1341,2488;0,0535109
1342,2130;0,0530441
1343,1772;0,0526645
1344,1415;0,0523432
1345,1057;0,0520626
1346,0699;0,0518251
1347,0342;0,0516491
1347,9984;0,0515594
1348,9626;0,0515741
1349,9269;0,0516953
1350,8911;0,0519071
1351,8553;0,0521815
1352,8196;0,0524895
1353,7838;0,0528139
1354,7480;0,0531546
1355,7123;0,0535248
1356,6765;0,0539363
