TITLE;
DATA TYPE;INFRARED SPECTRUM
ORIGIN;JASCO
OWNER;
DATE;25/01/29
TIME;14:03:47
SPECTROMETER/DATA SYSTEM;
LOCALE;9226
RESOLUTION;
DELTAX;0,964233
XUNITS;1/CM
YUNITS;ABSORBANCE
FIRSTX;  399,1927
LASTX; 4000,6047
NPOINTS;    3736
FIRSTY;     0,14778
MAXY;     0,21206
MINY;     0,01171
XYDATA
399,1927;0,147777
400,1569;0,148133
401,1211;0,148055
402,0854;0,147611
403,0496;0,146978
404,0138;0,146365
404,9781;0,145971
405,9423;0,145937
406,9065;0,146277
407,8708;0,146857
408,8350;0,147442
409,7992;0,147805
410,7635;0,147828
411,7277;0,147558
412,6919;0,147167
413,6562;0,146836
414,6204;0,146674
415,5846;0,146709
416,5489;0,146932
417,5131;0,147328
418,4773;0,14786
419,4416;0,148428
420,4058;0,148918
421,3700;0,149288
422,3343;0,149577
423,2985;0,149865
424,2627;0,150225
425,2270;0,150704
426,1912;0,151299
427,1554;0,151955
428,1197;0,152598
429,0839;0,153162
430,0481;0,153617
431,0124;0,153962
431,9766;0,154214
432,9408;0,154384
433,9051;0,15446
434,8693;0,154422
435,8335;0,154265
436,7978;0,154023
437,7620;0,153765
438,7262;0,153555
439,6905;0,153424
440,6547;0,15336
441,6189;0,153319
442,5832;0,153251
443,5474;0,15312
444,5116;0,152911
445,4759;0,152628
446,4401;0,152298
447,4043;0,151977
448,3686;0,151754
449,3328;0,151722
450,2970;0,151922
451,2613;0,152299
452,2255;0,152703
453,1897;0,152961
454,1540;0,152962
455,1182;0,152721
456,0824;0,152368
457,0467;0,152093
458,0109;0,152038
458,9751;0,152205
459,9394;0,152468
460,9036;0,152682
461,8678;0,152768
462,8321;0,152719
463,7963;0,152573
464,7605;0,152383
465,7248;0,152199
466,6890;0,152053
467,6532;0,151946
468,6175;0,151855
469,5817;0,151746
470,5459;0,151601
471,5102;0,151436
472,4744;0,151293
473,4386;0,151224
474,4029;0,151257
475,3671;0,151389
476,3313;0,151599
477,2956;0,151856
478,2598;0,152118
479,2240;0,152331
480,1883;0,152446
481,1525;0,152449
482,1167;0,15239
483,0810;0,15238
484,0452;0,152535
485,0094;0,152904
485,9737;0,153427
486,9379;0,15397
487,9021;0,154391
488,8664;0,154609
489,8306;0,154615
490,7948;0,154464
491,7591;0,154242
492,7233;0,154033
493,6875;0,153895
494,6518;0,153854
495,6160;0,153903
496,5802;0,154011
497,5445;0,154134
498,5087;0,154226
499,4729;0,154255
500,4372;0,154225
501,4014;0,154178
502,3656;0,154175
503,3299;0,15426
504,2941;0,154438
505,2583;0,154673
506,2226;0,15492
507,1868;0,155148
508,1510;0,155351
509,1153;0,15554
510,0795;0,155725
511,0437;0,155904
512,0080;0,156061
512,9722;0,15619
513,9365;0,156306
514,9007;0,156452
515,8649;0,15668
516,8292;0,157019
517,7934;0,157446
518,7576;0,157885
519,7219;0,158242
520,6861;0,158462
521,6503;0,158545
522,6146;0,158533
523,5788;0,158481
524,5430;0,158434
525,5073;0,158418
526,4715;0,158428
527,4357;0,15844
528,4000;0,158428
529,3642;0,158365
530,3284;0,158235
531,2927;0,158024
532,2569;0,157731
533,2211;0,157368
534,1854;0,156968
535,1496;0,156577
536,1138;0,156243
537,0781;0,156002
538,0423;0,155865
539,0065;0,155816
539,9708;0,155822
540,9350;0,155844
541,8992;0,155861
542,8635;0,155874
543,8277;0,155912
544,7919;0,156017
545,7562;0,156215
546,7204;0,156501
547,6846;0,156827
548,6489;0,157127
549,6131;0,157352
550,5773;0,157504
551,5416;0,157639
552,5058;0,157842
553,4700;0,158178
554,4343;0,158644
555,3985;0,159154
556,3627;0,159559
557,3270;0,159708
558,2912;0,159507
559,2554;0,158954
560,2197;0,158134
561,1839;0,157181
562,1481;0,156219
563,1124;0,155327
564,0766;0,154528
565,0408;0,153801
566,0051;0,153121
566,9693;0,15248
567,9335;0,151895
568,8978;0,151396
569,8620;0,151
570,8262;0,150701
571,7905;0,150469
572,7547;0,150267
573,7189;0,150067
574,6832;0,149859
575,6474;0,149652
576,6116;0,149469
577,5759;0,14933
578,5401;0,149246
579,5043;0,149204
580,4686;0,149173
581,4328;0,149119
582,3970;0,149022
583,3613;0,148894
584,3255;0,148771
585,2897;0,148698
586,2540;0,148704
587,2182;0,148784
588,1824;0,148905
589,1467;0,149018
590,1109;0,14908
591,0751;0,149067
592,0394;0,148978
593,0036;0,148824
593,9678;0,148624
594,9321;0,148393
595,8963;0,14814
596,8605;0,147867
597,8248;0,147569
598,7890;0,147244
599,7532;0,146888
600,7175;0,146508
601,6817;0,146114
602,6459;0,145726
603,6102;0,145365
604,5744;0,145044
605,5386;0,144759
606,5029;0,144485
607,4671;0,144184
608,4313;0,143816
609,3956;0,143357
610,3598;0,142814
611,3240;0,142217
612,2883;0,141607
613,2525;0,141009
614,2167;0,140428
615,1810;0,139843
616,1452;0,139227
617,1094;0,138556
618,0737;0,13783
619,0379;0,137066
620,0021;0,136287
620,9664;0,135509
621,9306;0,134736
622,8948;0,13397
623,8591;0,133211
624,8233;0,132472
625,7875;0,131755
626,7518;0,131071
627,7160;0,130423
628,6802;0,12981
629,6445;0,129223
630,6087;0,128656
631,5729;0,128105
632,5372;0,127573
633,5014;0,127067
634,4656;0,126593
635,4299;0,126146
636,3941;0,125714
637,3583;0,125278
638,3226;0,124829
639,2868;0,124369
640,2510;0,123916
641,2153;0,123487
642,1795;0,123092
643,1437;0,122723
644,1080;0,122362
645,0722;0,121995
646,0364;0,121618
647,0007;0,121245
647,9649;0,120899
648,9291;0,120599
649,8934;0,120359
650,8576;0,120174
651,8218;0,120026
652,7861;0,119896
653,7503;0,119767
654,7145;0,119644
655,6788;0,119549
656,6430;0,11952
657,6072;0,119576
658,5715;0,119702
659,5357;0,11984
660,4999;0,119915
661,4642;0,11989
662,4284;0,119795
663,3926;0,119703
664,3569;0,119671
665,3211;0,119671
666,2853;0,119539
667,2496;0,118992
668,2138;0,11786
669,1780;0,116407
670,1423;0,115066
671,1065;0,113969
672,0707;0,113008
673,0350;0,112042
673,9992;0,110976
674,9634;0,109784
675,9277;0,108522
676,8919;0,107284
677,8561;0,106133
678,8204;0,105076
679,7846;0,10409
680,7488;0,103166
681,7131;0,102322
682,6773;0,101578
683,6415;0,100935
684,6058;0,100375
685,5700;0,0998705
686,5342;0,0994114
687,4985;0,0990013
688,4627;0,0986465
689,4269;0,0983443
690,3912;0,0980757
691,3554;0,0978133
692,3196;0,0975366
693,2839;0,0972436
694,2481;0,0969513
695,2123;0,0966839
696,1766;0,0964546
697,1408;0,0962541
698,1050;0,0960519
699,0693;0,095813
700,0335;0,0955175
700,9977;0,0951718
701,9620;0,0948043
702,9262;0,0944485
703,8904;0,0941264
704,8547;0,0938323
705,8189;0,0935384
706,7831;0,0932086
707,7474;0,0928178
708,7116;0,0923637
709,6758;0,091868
710,6401;0,0913654
711,6043;0,0908884
712,5685;0,0904539
713,5328;0,0900592
714,4970;0,0896848
715,4612;0,0894168
716,4255;0,0889798
717,3897;0,0884811
718,3539;0,0879172
719,3182;0,0873016
720,2824;0,0866626
721,2466;0,086032
722,2109;0,0854293
723,1751;0,0848535
724,1393;0,084286
725,1036;0,0837041
726,0678;0,0830945
727,0320;0,0824618
727,9963;0,0818266
728,9605;0,0812159
729,9247;0,0806502
730,8890;0,0801353
731,8532;0,0796631
732,8174;0,0792186
733,7817;0,0787896
734,7459;0,0783734
735,7101;0,0779766
736,6744;0,0776081
737,6386;0,0772698
738,6028;0,0769517
739,5671;0,0766357
740,5313;0,0763063
741,4955;0,0759605
742,4598;0,075608
743,4240;0,0752613
744,3882;0,0749229
745,3525;0,0745804
746,3167;0,0742146
747,2809;0,073814
748,2452;0,0733846
749,2094;0,0729473
750,1736;0,0725247
751,1379;0,0721272
752,1021;0,071749
753,0663;0,071375
754,0306;0,0709919
754,9948;0,0705962
755,9590;0,0701929
756,9233;0,0697896
757,8875;0,0693922
758,8517;0,0690046
759,8160;0,0686322
760,7802;0,068283
761,7444;0,067964
762,7087;0,0676756
763,6729;0,0674089
764,6371;0,0671484
765,6014;0,06688
766,5656;0,0665979
767,5298;0,0663056
768,4941;0,066011
769,4583;0,0657201
770,4225;0,0654336
771,3868;0,0651498
772,3510;0,0648695
773,3152;0,0645992
774,2795;0,0643477
775,2437;0,0641211
776,2079;0,0639168
777,1722;0,0637233
778,1364;0,063525
779,1006;0,0633081
780,0649;0,0630655
781,0291;0,062798
781,9933;0,0625129
782,9576;0,0622213
783,9218;0,0619354
784,8860;0,0616663
785,8503;0,0614208
786,8145;0,0612006
787,7787;0,0610025
788,7430;0,0608215
789,7072;0,060654
790,6714;0,0604993
791,6357;0,0603594
792,5999;0,0602362
793,5641;0,060129
794,5284;0,0600341
795,4926;0,0599456
796,4568;0,0598584
797,4211;0,0597687
798,3853;0,0596751
799,3495;0,0595779
800,3138;0,0594788
801,2780;0,0593812
802,2422;0,0592894
803,2065;0,0592077
804,1707;0,0591374
805,1349;0,0590762
806,0992;0,0590183
807,0634;0,0589585
808,0276;0,0588943
808,9919;0,0588264
809,9561;0,0587553
810,9203;0,0586779
811,8846;0,0585875
812,8488;0,0584793
813,8130;0,0583572
814,7773;0,0582364
815,7415;0,0581381
816,7057;0,0580777
817,6700;0,0580558
818,6342;0,0580564
819,5984;0,0580562
820,5627;0,0580381
821,5269;0,058
822,4911;0,0579538
823,4554;0,0579164
824,4196;0,0578998
825,3839;0,0579053
826,3481;0,0579258
827,3123;0,0579514
828,2766;0,0579743
829,2408;0,0579896
830,2050;0,0579925
831,1693;0,0579752
832,1335;0,0579264
833,0977;0,0578342
834,0620;0,0576916
835,0262;0,0575004
835,9904;0,057273
836,9547;0,0570278
837,9189;0,0567829
838,8831;0,0565495
839,8474;0,0563301
840,8116;0,0561217
841,7758;0,0559229
842,7401;0,0557379
843,7043;0,0555766
844,6685;0,0554485
845,6328;0,0553566
846,5970;0,0552946
847,5612;0,0552502
848,5255;0,0552117
849,4897;0,0551726
850,4539;0,0551321
851,4182;0,055092
852,3824;0,0550527
853,3466;0,0550121
854,3109;0,0549678
855,2751;0,0549196
856,2393;0,0548705
857,2036;0,0548253
858,1678;0,0547895
859,1320;0,0547683
860,0963;0,054768
861,0605;0,0547961
862,0247;0,0548592
862,9890;0,0549589
863,9532;0,0550896
864,9174;0,0552387
865,8817;0,0553919
866,8459;0,0555393
867,8101;0,0556798
868,7744;0,0558202
869,7386;0,0559704
870,7028;0,0561373
871,6671;0,0563207
872,6313;0,056513
873,5955;0,0567028
874,5598;0,0568797
875,5240;0,0570385
876,4882;0,0571809
877,4525;0,0573151
878,4167;0,0574529
879,3809;0,0576076
880,3452;0,0577923
881,3094;0,0580201
882,2736;0,0583046
883,2379;0,0586584
884,2021;0,0590919
885,1663;0,0596093
886,1306;0,0602077
887,0948;0,060877
888,0590;0,0616029
889,0233;0,0623694
889,9875;0,0631605
890,9517;0,0639594
891,9160;0,0647463
892,8802;0,0654966
893,8444;0,066181
894,8087;0,0667674
895,7729;0,0672251
896,7371;0,0675289
897,7014;0,0676632
898,6656;0,0676239
899,6298;0,0674199
900,5941;0,0670718
901,5583;0,0666097
902,5225;0,06607
903,4868;0,0654916
904,4510;0,0649122
905,4152;0,0643644
906,3795;0,0638732
907,3437;0,0634557
908,3079;0,0631208
909,2722;0,0628719
910,2364;0,0627076
911,2007;0,0626234
912,1649;0,062612
913,1292;0,062664
914,0934;0,0627693
915,0576;0,0629192
916,0219;0,0631072
916,9861;0,0633278
917,9503;0,063575
918,9146;0,0638403
919,8788;0,0641135
920,8430;0,0643851
921,8073;0,0646502
922,7715;0,0649091
923,7357;0,0651656
924,7000;0,0654224
925,6642;0,0656769
926,6284;0,0659205
927,5927;0,0661426
928,5569;0,0663362
929,5211;0,0665022
930,4854;0,0666508
931,4496;0,0667973
932,4138;0,0669575
933,3781;0,0671432
934,3423;0,0673609
935,3065;0,0676141
936,2708;0,0679059
937,2350;0,0682406
938,1992;0,0686238
939,1635;0,0690603
940,1277;0,0695526
941,0919;0,0700999
942,0562;0,0706995
943,0204;0,0713475
943,9846;0,0720402
944,9489;0,0727758
945,9131;0,0735555
946,8773;0,0743846
947,8416;0,0752717
948,8058;0,0762271
949,7700;0,0772593
950,7343;0,0783722
951,6985;0,0795646
952,6627;0,0808316
953,6270;0,082167
954,5912;0,083566
955,5554;0,0850252
956,5197;0,0865411
957,4839;0,0881092
958,4481;0,0897236
959,4124;0,0913778
960,3766;0,0930662
961,3408;0,0947837
962,3051;0,0965248
963,2693;0,0982823
964,2335;0,100048
965,1978;0,101817
966,1620;0,103593
967,1262;0,105393
968,0905;0,107247
969,0547;0,109192
970,0189;0,111262
970,9832;0,113479
971,9474;0,115852
972,9116;0,11838
973,8759;0,121063
974,8401;0,123908
975,8043;0,126929
976,7686;0,130137
977,7328;0,133525
978,6970;0,137058
979,6613;0,140666
980,6255;0,144253
981,5897;0,147714
982,5540;0,150948
983,5182;0,153882
984,4824;0,156473
985,4467;0,158715
986,4109;0,160629
987,3751;0,162253
988,3394;0,163633
989,3036;0,164809
990,2678;0,165812
991,2321;0,166666
992,1963;0,167394
993,1605;0,168018
994,1248;0,168566
995,0890;0,169067
996,0532;0,169547
997,0175;0,170027
997,9817;0,170519
998,9459;0,171033
999,9102;0,171576
1000,8744;0,172162
1001,8386;0,172806
1002,8029;0,17353
1003,7671;0,174355
1004,7313;0,175303
1005,6956;0,176398
1006,6598;0,177664
1007,6240;0,179118
1008,5883;0,180765
1009,5525;0,182592
1010,5167;0,184566
1011,4810;0,186642
1012,4452;0,188767
1013,4094;0,190892
1014,3737;0,192973
1015,3379;0,194977
1016,3021;0,196878
1017,2664;0,198659
1018,2306;0,200311
1019,1948;0,201834
1020,1591;0,203231
1021,1233;0,204514
1022,0875;0,205693
1023,0518;0,20678
1024,0160;0,207788
1024,9802;0,208722
1025,9445;0,20958
1026,9087;0,21035
1027,8729;0,211014
1028,8372;0,211544
1029,8014;0,211906
1030,7656;0,212061
1031,7299;0,211963
1032,6941;0,211572
1033,6583;0,210859
1034,6226;0,209829
1035,5868;0,208528
1036,5510;0,207045
1037,5153;0,205493
1038,4795;0,203992
1039,4437;0,202643
1040,4080;0,201513
1041,3722;0,200634
1042,3364;0,199994
1043,3007;0,19955
1044,2649;0,199236
1045,2291;0,198975
1046,1934;0,198691
1047,1576;0,198326
1048,1218;0,19784
1049,0861;0,197212
1050,0503;0,196427
1051,0145;0,195473
1051,9788;0,194335
1052,9430;0,193008
1053,9072;0,191496
1054,8715;0,189819
1055,8357;0,187995
1056,7999;0,18603
1057,7642;0,183906
1058,7284;0,181588
1059,6926;0,179047
1060,6569;0,176288
1061,6211;0,173364
1062,5853;0,170367
1063,5496;0,167406
1064,5138;0,164574
1065,4780;0,161929
1066,4423;0,159489
1067,4065;0,157246
1068,3707;0,155179
1069,3350;0,153261
1070,2992;0,151463
1071,2634;0,149751
1072,2277;0,148081
1073,1919;0,146411
1074,1561;0,144707
1075,1204;0,142947
1076,0846;0,141129
1077,0488;0,139267
1078,0131;0,137389
1078,9773;0,135532
1079,9415;0,133737
1080,9058;0,13205
1081,8700;0,130505
1082,8342;0,129127
1083,7985;0,127922
1084,7627;0,126878
1085,7269;0,125975
1086,6912;0,125185
1087,6554;0,124486
1088,6196;0,123864
1089,5839;0,123316
1090,5481;0,122845
1091,5123;0,122464
1092,4766;0,12218
1093,4408;0,121996
1094,4050;0,121906
1095,3693;0,121894
1096,3335;0,121941
1097,2977;0,12203
1098,2620;0,122149
1099,2262;0,122287
1100,1904;0,122435
1101,1547;0,122578
1102,1189;0,122692
1103,0831;0,122749
1104,0474;0,122724
1105,0116;0,122602
1105,9758;0,122379
1106,9401;0,122066
1107,9043;0,121671
1108,8685;0,121194
1109,8328;0,120623
1110,7970;0,119932
1111,7612;0,119101
1112,7255;0,118128
1113,6897;0,117037
1114,6539;0,11588
1115,6182;0,114723
1116,5824;0,113622
1117,5466;0,112613
1118,5109;0,111698
1119,4751;0,110846
1120,4393;0,110003
1121,4036;0,109102
1122,3678;0,108078
1123,3320;0,106881
1124,2963;0,105486
1125,2605;0,103896
1126,2247;0,102137
1127,1890;0,100249
1128,1532;0,0982742
1129,1174;0,0962537
1130,0817;0,0942196
1131,0459;0,092198
1132,0101;0,0902122
1132,9744;0,0882867
1133,9386;0,08645
1134,9028;0,0847363
1135,8671;0,0831827
1136,8313;0,0818232
1137,7955;0,0806825
1138,7598;0,0797695
1139,7240;0,0790767
1140,6882;0,0785829
1141,6525;0,0782594
1142,6167;0,0780763
1143,5809;0,0780066
1144,5452;0,0780295
1145,5094;0,078131
1146,4736;0,0783044
1147,4379;0,0785491
1148,4021;0,0788671
1149,3663;0,0792579
1150,3306;0,0797129
1151,2948;0,0802117
1152,2590;0,0807216
1153,2233;0,0812021
1154,1875;0,0816096
1155,1517;0,0819021
1156,1160;0,0820404
1157,0802;0,0819865
1158,0444;0,0817014
1159,0087;0,0811449
1159,9729;0,0802793
1160,9371;0,0790755
1161,9014;0,0775215
1162,8656;0,0756284
1163,8298;0,0734336
1164,7941;0,0709989
1165,7583;0,0684057
1166,7225;0,0657458
1167,6868;0,0631112
1168,6510;0,0605827
1169,6152;0,0582209
1170,5795;0,0560627
1171,5437;0,0541231
1172,5079;0,0524017
1173,4722;0,0508898
1174,4364;0,0495748
1175,4006;0,0484418
1176,3649;0,0474739
1177,3291;0,0466533
1178,2933;0,0459634
1179,2576;0,0453897
1180,2218;0,0449203
1181,1860;0,0445439
1182,1503;0,0442478
1183,1145;0,0440191
1184,0787;0,0438474
1185,0430;0,0437284
1186,0072;0,0436657
1186,9714;0,0436683
1187,9357;0,0437462
1188,8999;0,0439051
1189,8641;0,0441441
1190,8284;0,044458
1191,7926;0,0448399
1192,7568;0,0452852
1193,7211;0,045792
1194,6853;0,046359
1195,6495;0,0469831
1196,6138;0,047657
1197,5780;0,0483696
1198,5422;0,0491082
1199,5065;0,0498347
1200,4707;0,0505947
1201,4349;0,0513511
1202,3992;0,0520973
1203,3634;0,0528287
1204,3276;0,0535429
1205,2919;0,0542411
1206,2561;0,0549281
1207,2203;0,0556123
1208,1846;0,0563041
1209,1488;0,0570155
1210,1130;0,0577588
1211,0773;0,058545
1212,0415;0,0593811
1213,0057;0,0602686
1213,9700;0,0612021
1214,9342;0,0621707
1215,8984;0,0631593
1216,8627;0,0641506
1217,8269;0,0651263
1218,7911;0,0660693
1219,7554;0,0669655
1220,7196;0,0678063
1221,6838;0,0685895
1222,6481;0,0693178
1223,6123;0,0699959
1224,5765;0,0706274
1225,5408;0,0712127
1226,5050;0,0717497
1227,4692;0,0722358
1228,4335;0,0726694
1229,3977;0,0730506
1230,3619;0,0733798
1231,3262;0,0736569
1232,2904;0,0738814
1233,2546;0,0740535
1234,2189;0,074176
1235,1831;0,0742548
1236,1473;0,0742979
1237,1116;0,0743135
1238,0758;0,0743065
1239,0400;0,074278
1240,0043;0,0742261
1240,9685;0,0741476
1241,9327;0,0740397
1242,8970;0,0739005
1243,8612;0,0737278
1244,8254;0,0735185
1245,7897;0,0732693
1246,7539;0,0729792
1247,7181;0,0726524
1248,6824;0,0722981
1249,6466;0,071929
1250,6108;0,0715573
1251,5751;0,0711923
1252,5393;0,0708385
1253,5035;0,0704965
1254,4678;0,0701635
1255,4320;0,0698333
1256,3962;0,069497
1257,3605;0,069145
1258,3247;0,0687693
1259,2889;0,068366
1260,2532;0,0679349
1261,2174;0,0674763
1262,1816;0,066988
1263,1459;0,0664643
1264,1101;0,0658981
1265,0743;0,0652851
1266,0386;0,0646252
1267,0028;0,0639221
1267,9670;0,06318
1268,9313;0,0624021
1269,8955;0,0615911
1270,8597;0,0607516
1271,8240;0,0598917
1272,7882;0,0590229
1273,7524;0,0581571
1274,7167;0,0573044
1275,6809;0,0564724
1276,6451;0,0556665
1277,6094;0,0548901
1278,5736;0,0541437
1279,5378;0,0534246
1280,5021;0,0527271
1281,4663;0,0520459
1282,4305;0,0513794
1283,3948;0,050732
1284,3590;0,0501135
1285,3232;0,0495373
1286,2875;0,0490175
1287,2517;0,0485652
1288,2159;0,0481868
1289,1802;0,0478816
1290,1444;0,0476439
1291,1086;0,0474654
1292,0729;0,0473397
1293,0371;0,0472655
1294,0013;0,047246
1294,9656;0,047287
1295,9298;0,0473925
1296,8940;0,0475622
1297,8583;0,0477924
1298,8225;0,0480777
1299,7867;0,0484134
1300,7510;0,0487961
1301,7152;0,0492233
1302,6794;0,0496927
1303,6437;0,0502017
1304,6079;0,0507481
1305,5721;0,0513291
1306,5364;0,0519398
1307,5006;0,0525729
1308,4648;0,0532199
1309,4291;0,0538729
1310,3933;0,0545251
1311,3575;0,0551692
1312,3218;0,0557933
1313,2860;0,0563793
1314,2502;0,0569045
1315,2145;0,0573451
1316,1787;0,057682
1317,1429;0,057905
1318,1072;0,0580165
1319,0714;0,0580326
1320,0356;0,0579796
1320,9999;0,0578854
1321,9641;0,0577713
1322,9283;0,057649
1323,8926;0,0575234
1324,8568;0,0573967
1325,8210;0,0572711
1326,7853;0,057148
1327,7495;0,0570258
1328,7137;0,0568977
1329,6780;0,0567522
1330,6422;0,0565768
1331,6064;0,0563608
1332,5707;0,0560982
1333,5349;0,0557868
1334,4991;0,0554241
1335,4634;0,0550046
1336,4276;0,0545212
1337,3918;0,0539739
1338,3561;0,0533828
1339,3203;0,0527924
1340,2845;0,0522555
1341,2488;0,0518053
1342,2130;0,0514426
1343,1772;0,0511473
1344,1415;0,0508977
1345,1057;0,0506836
1346,0699;0,0505096
1347,0342;0,050391
1347,9984;0,0503462
1348,9626;0,0503873
1349,9269;0,0505139
1350,8911;0,0507128
1351,8553;0,0509645
1352,8196;0,0512536
1353,7838;0,0515758
1354,7480;0,0519373
1355,7123;0,0523452
1356,6765;0,052797
