TITLE;
DATA TYPE;INFRARED SPECTRUM
ORIGIN;JASCO
OWNER;
DATE;25/02/05
TIME;11:36:49
SPECTROMETER/DATA SYSTEM;
LOCALE;9226
RESOLUTION;
DELTAX;0,964233
XUNITS;1/CM
YUNITS;ABSORBANCE
FIRSTX;  399,1927
LASTX; 4000,6047
NPOINTS;    3736
FIRSTY;     0,20000
MAXY;     0,29793
MINY;    -0,00619
XYDATA
399,1927;0,200004
400,1569;0,198354
401,1211;0,198182
402,0854;0,198861
403,0496;0,199712
404,0138;0,200258
404,9781;0,200307
405,9423;0,199941
406,9065;0,199404
407,8708;0,198905
408,8350;0,198471
409,7992;0,197997
410,7635;0,197432
411,7277;0,196949
412,6919;0,196921
413,6562;0,197715
414,6204;0,199508
415,5846;0,20223
416,5489;0,205524
417,5131;0,208674
418,4773;0,210741
419,4416;0,211264
420,4058;0,210783
421,3700;0,21017
422,3343;0,209815
423,2985;0,209634
424,2627;0,209418
425,2270;0,209079
426,1912;0,20871
427,1554;0,208483
428,1197;0,208488
429,0839;0,208657
430,0481;0,20882
431,0124;0,20883
431,9766;0,208665
432,9408;0,208423
433,9051;0,208243
434,8693;0,208194
435,8335;0,208233
436,7978;0,208246
437,7620;0,208124
438,7262;0,207824
439,6905;0,207366
440,6547;0,206811
441,6189;0,206242
442,5832;0,205736
443,5474;0,205329
444,5116;0,204979
445,4759;0,204573
446,4401;0,203997
447,4043;0,203203
448,3686;0,202253
449,3328;0,201302
450,2970;0,200536
451,2613;0,200094
452,2255;0,200012
453,1897;0,200227
454,1540;0,200605
455,1182;0,200975
456,0824;0,201137
457,0467;0,200906
458,0109;0,200218
458,9751;0,199229
459,9394;0,198256
460,9036;0,19758
461,8678;0,197294
462,8321;0,197288
463,7963;0,197334
464,7605;0,197211
465,7248;0,196838
466,6890;0,196322
467,6532;0,19588
468,6175;0,195689
469,5817;0,195776
470,5459;0,196014
471,5102;0,196213
472,4744;0,196253
473,4386;0,196158
474,4029;0,196055
475,3671;0,19605
476,3313;0,19617
477,2956;0,196377
478,2598;0,19662
479,2240;0,196874
480,1883;0,197145
481,1525;0,197442
482,1167;0,197768
483,0810;0,198107
484,0452;0,19845
485,0094;0,198806
485,9737;0,199208
486,9379;0,199694
487,9021;0,200285
488,8664;0,200976
489,8306;0,201725
490,7948;0,202465
491,7591;0,203117
492,7233;0,203616
493,6875;0,20394
494,6518;0,204114
495,6160;0,204206
496,5802;0,204309
497,5445;0,204522
498,5087;0,204921
499,4729;0,205532
500,4372;0,206308
501,4014;0,207115
502,3656;0,207787
503,3299;0,208204
504,2941;0,208357
505,2583;0,208344
506,2226;0,208313
507,1868;0,208392
508,1510;0,208648
509,1153;0,209084
510,0795;0,209668
511,0437;0,210373
512,0080;0,211186
512,9722;0,212108
513,9365;0,213131
514,9007;0,214216
515,8649;0,215287
516,8292;0,216241
517,7934;0,216985
518,7576;0,217483
519,7219;0,217779
520,6861;0,217969
521,6503;0,218146
522,6146;0,21835
523,5788;0,218555
524,5430;0,218689
525,5073;0,21868
526,4715;0,218516
527,4357;0,21826
528,4000;0,218007
529,3642;0,217813
530,3284;0,217667
531,2927;0,217503
532,2569;0,217252
533,2211;0,216895
534,1854;0,216484
535,1496;0,216115
536,1138;0,215869
537,0781;0,215771
538,0423;0,215784
539,0065;0,215842
539,9708;0,215899
540,9350;0,215951
541,8992;0,216034
542,8635;0,216191
543,8277;0,216444
544,7919;0,216779
545,7562;0,217162
546,7204;0,217561
547,6846;0,217969
548,6489;0,218405
549,6131;0,218896
550,5773;0,219461
551,5416;0,220096
552,5058;0,220784
553,4700;0,221498
554,4343;0,222199
555,3985;0,222832
556,3627;0,223308
557,3270;0,223514
558,2912;0,223343
559,2554;0,222744
560,2197;0,221753
561,1839;0,220498
562,1481;0,21916
563,1124;0,217901
564,0766;0,216814
565,0408;0,215903
566,0051;0,215113
566,9693;0,214385
567,9335;0,213697
568,8978;0,213081
569,8620;0,212596
570,8262;0,212286
571,7905;0,212153
572,7547;0,212163
573,7189;0,212261
574,6832;0,212394
575,6474;0,212525
576,6116;0,212629
577,5759;0,212683
578,5401;0,212665
579,5043;0,212548
580,4686;0,212318
581,4328;0,211983
582,3970;0,211587
583,3613;0,211194
584,3255;0,21087
585,2897;0,210663
586,2540;0,210586
587,2182;0,210626
588,1824;0,21075
589,1467;0,210915
590,1109;0,211066
591,0751;0,211139
592,0394;0,211069
593,0036;0,210823
593,9678;0,210413
594,9321;0,209892
595,8963;0,209325
596,8605;0,208757
597,8248;0,208194
598,7890;0,207614
599,7532;0,206988
600,7175;0,206316
601,6817;0,205628
602,6459;0,204981
603,6102;0,204425
604,5744;0,203979
605,5386;0,203615
606,5029;0,20327
607,4671;0,202858
608,4313;0,202304
609,3956;0,201575
610,3598;0,20071
611,3240;0,199819
612,2883;0,199046
613,2525;0,198505
614,2167;0,198208
615,1810;0,198031
616,1452;0,197739
617,1094;0,197074
618,0737;0,195896
619,0379;0,194255
620,0021;0,192359
620,9664;0,190459
621,9306;0,188747
622,8948;0,187308
623,8591;0,186135
624,8233;0,185126
625,7875;0,184296
626,7518;0,183588
627,7160;0,182956
628,6802;0,182356
629,6445;0,181756
630,6087;0,181132
631,5729;0,180485
632,5372;0,179824
633,5014;0,179166
634,4656;0,178526
635,4299;0,177919
636,3941;0,177361
637,3583;0,176874
638,3226;0,176472
639,2868;0,176148
640,2510;0,175865
641,2153;0,175572
642,1795;0,175233
643,1437;0,174846
644,1080;0,17445
645,0722;0,174098
646,0364;0,173823
647,0007;0,173617
647,9649;0,173438
648,9291;0,173232
649,8934;0,172974
650,8576;0,172684
651,8218;0,172418
652,7861;0,17224
653,7503;0,172201
654,7145;0,172314
655,6788;0,172554
656,6430;0,172862
657,6072;0,173181
658,5715;0,173461
659,5357;0,173656
660,4999;0,173697
661,4642;0,173484
662,4284;0,172901
663,3926;0,17185
664,3569;0,17033
665,3211;0,168572
666,2853;0,167116
667,2496;0,166522
668,2138;0,166643
669,1780;0,166643
670,1423;0,166188
671,1065;0,165433
672,0707;0,164361
673,0350;0,162871
673,9992;0,161025
674,9634;0,159041
675,9277;0,157143
676,8919;0,155436
677,8561;0,153878
678,8204;0,152372
679,7846;0,150866
680,7488;0,14938
681,7131;0,147976
682,6773;0,146702
683,6415;0,145573
684,6058;0,14458
685,5700;0,143713
686,5342;0,142962
687,4985;0,142314
688,4627;0,141747
689,4269;0,141223
690,3912;0,140711
691,3554;0,140195
692,3196;0,139668
693,2839;0,139131
694,2481;0,138587
695,2123;0,138041
696,1766;0,137496
697,1408;0,136948
698,1050;0,136384
699,0693;0,135792
700,0335;0,13517
700,9977;0,134532
701,9620;0,133899
702,9262;0,133286
703,8904;0,132674
704,8547;0,132049
705,8189;0,131394
706,7831;0,130709
707,7474;0,130013
708,7116;0,129326
709,6758;0,128652
710,6401;0,12797
711,6043;0,127238
712,5685;0,12643
713,5328;0,125558
714,4970;0,124684
715,4612;0,122986
716,4255;0,122516
717,3897;0,122231
718,3539;0,121974
719,3182;0,12152
720,2824;0,120692
721,2466;0,119462
722,2109;0,117966
723,1751;0,116418
724,1393;0,114992
725,1036;0,11376
726,0678;0,112699
727,0320;0,111737
727,9963;0,110808
728,9605;0,109889
729,9247;0,108986
730,8890;0,108123
731,8532;0,10732
732,8174;0,106581
733,7817;0,105899
734,7459;0,105267
735,7101;0,104674
736,6744;0,104115
737,6386;0,103587
738,6028;0,103085
739,5671;0,102602
740,5313;0,102122
741,4955;0,101626
742,4598;0,101094
743,4240;0,100515
744,3882;0,0998945
745,3525;0,0992477
746,3167;0,0985966
747,2809;0,097959
748,2452;0,0973426
749,2094;0,0967432
750,1736;0,0961495
751,1379;0,0955495
752,1021;0,0949375
753,0663;0,0943169
754,0306;0,0936979
754,9948;0,0930915
755,9590;0,0925038
756,9233;0,0919339
757,8875;0,0913771
758,8517;0,0908297
759,8160;0,0902915
760,7802;0,0897652
761,7444;0,089253
762,7087;0,0887547
763,6729;0,0882694
764,6371;0,0877994
765,6014;0,0873507
766,5656;0,0869302
767,5298;0,0865385
768,4941;0,0861658
769,4583;0,0857936
770,4225;0,0854031
771,3868;0,0849848
772,3510;0,0845442
773,3152;0,0840999
774,2795;0,0836743
775,2437;0,0832846
776,2079;0,0829361
777,1722;0,0826205
778,1364;0,0823199
779,1006;0,082012
780,0649;0,0816775
781,0291;0,0813051
781,9933;0,080894
782,9576;0,0804542
783,9218;0,0800016
784,8860;0,079553
785,8503;0,0791218
786,8145;0,0787163
787,7787;0,0783409
788,7430;0,0779977
789,7072;0,0776879
790,6714;0,0774116
791,6357;0,0771669
792,5999;0,0769504
793,5641;0,0767574
794,5284;0,0765821
795,4926;0,0764172
796,4568;0,0762537
797,4211;0,076082
798,3853;0,0758947
799,3495;0,075691
800,3138;0,0754779
801,2780;0,0752686
802,2422;0,0750761
803,2065;0,0749057
804,1707;0,0747517
805,1349;0,0745995
806,0992;0,074433
807,0634;0,0742442
808,0276;0,0740369
808,9919;0,0738248
809,9561;0,0736227
810,9203;0,0734398
811,8846;0,0732771
812,8488;0,0731313
813,8130;0,0729994
814,7773;0,0728811
815,7415;0,0727762
816,7057;0,0726813
817,6700;0,0725904
818,6342;0,0724994
819,5984;0,0724122
820,5627;0,0723406
821,5269;0,0722981
822,4911;0,0722916
823,4554;0,0723163
824,4196;0,0723591
825,3839;0,072406
826,3481;0,0724479
827,3123;0,0724805
828,2766;0,0724995
829,2408;0,0724963
830,2050;0,0724593
831,1693;0,0723799
832,1335;0,0722566
833,0977;0,0720949
834,0620;0,0719015
835,0262;0,0716795
835,9904;0,0714277
836,9547;0,0711459
837,9189;0,0708403
838,8831;0,0705243
839,8474;0,0702134
840,8116;0,0699176
841,7758;0,0696375
842,7401;0,0693667
843,7043;0,0690995
844,6685;0,0688372
845,6328;0,0685896
846,5970;0,0683698
847,5612;0,0681872
848,5255;0,0680418
849,4897;0,0679243
850,4539;0,0678201
851,4182;0,0677157
852,3824;0,0676019
853,3466;0,0674758
854,3109;0,0673389
855,2751;0,0671953
856,2393;0,0670505
857,2036;0,0669106
858,1678;0,0667812
859,1320;0,0666666
860,0963;0,0665687
861,0605;0,066487
862,0247;0,0664205
862,9890;0,0663702
863,9532;0,066341
864,9174;0,0663409
865,8817;0,0663786
866,8459;0,0664607
867,8101;0,0665892
868,7744;0,0667607
869,7386;0,0669649
870,7028;0,0671833
871,6671;0,0673901
872,6313;0,0675559
873,5955;0,0676574
874,5598;0,0676868
875,5240;0,0676579
876,4882;0,0676032
877,4525;0,0675626
878,4167;0,0675706
879,3809;0,0676484
880,3452;0,0678057
881,3094;0,0680471
882,2736;0,0683788
883,2379;0,0688088
884,2021;0,0693428
885,1663;0,0699793
886,1306;0,0707087
887,0948;0,0715177
888,0590;0,0723929
889,0233;0,0733229
889,9875;0,074294
890,9517;0,0752864
891,9160;0,076272
892,8802;0,0772171
893,8444;0,0780864
894,8087;0,0788455
895,7729;0,0794617
896,7371;0,0799037
897,7014;0,0801453
898,6656;0,0801712
899,6298;0,0799851
900,5941;0,0796119
901,5583;0,0790938
902,5225;0,0784807
903,4868;0,0778202
904,4510;0,0771524
905,4152;0,0765101
906,3795;0,0759229
907,3437;0,075419
908,3079;0,0750222
909,2722;0,0747463
910,2364;0,0745901
911,2007;0,0745389
912,1649;0,0745721
913,1292;0,0746735
914,0934;0,0748368
915,0576;0,0750634
916,0219;0,0753535
916,9861;0,0756982
917,9503;0,0760784
918,9146;0,0764716
919,8788;0,0768622
920,8430;0,0772462
921,8073;0,0776261
922,7715;0,0779999
923,7357;0,0783528
924,7000;0,0786586
925,6642;0,0788924
926,6284;0,0790443
927,5927;0,0791258
928,5569;0,0791648
929,5211;0,079191
930,4854;0,0792242
931,4496;0,0792705
932,4138;0,0793286
933,3781;0,0794
934,3423;0,079495
935,3065;0,0796313
936,2708;0,0798276
937,2350;0,0800956
938,1992;0,080437
939,1635;0,0808443
940,1277;0,0813067
941,0919;0,0818163
942,0562;0,0823732
943,0204;0,082987
943,9846;0,0836737
944,9489;0,0844494
945,9131;0,0853221
946,8773;0,0862881
947,8416;0,0873335
948,8058;0,0884422
949,7700;0,0896058
950,7343;0,090829
951,6985;0,092129
952,6627;0,0935273
953,6270;0,0950409
954,5912;0,0966758
955,5554;0,0984259
956,5197;0,100277
957,4839;0,102213
958,4481;0,10422
959,4124;0,106286
960,3766;0,108405
961,3408;0,110572
962,3051;0,112783
963,2693;0,115034
964,2335;0,117323
965,1978;0,119655
966,1620;0,122042
967,1262;0,124505
968,0905;0,127072
969,0547;0,129773
970,0189;0,132642
970,9832;0,135712
971,9474;0,139019
972,9116;0,142603
973,8759;0,1465
974,8401;0,150736
975,8043;0,155325
976,7686;0,160257
977,7328;0,165501
978,6970;0,170997
979,6613;0,176654
980,6255;0,18234
981,5897;0,187897
982,5540;0,193151
983,5182;0,197949
984,4824;0,202188
985,4467;0,205839
986,4109;0,208941
987,3751;0,211578
988,3394;0,213846
989,3036;0,215822
990,2678;0,217555
991,2321;0,219069
992,1963;0,22038
993,1605;0,221516
994,1248;0,222522
995,0890;0,223452
996,0532;0,224354
997,0175;0,225255
997,9817;0,226155
998,9459;0,227037
999,9102;0,227888
1000,8744;0,22871
1001,8386;0,229539
1002,8029;0,230432
1003,7671;0,23146
1004,7313;0,232693
1005,6956;0,234192
1006,6598;0,236006
1007,6240;0,238169
1008,5883;0,240696
1009,5525;0,243575
1010,5167;0,246763
1011,4810;0,250188
1012,4452;0,253758
1013,4094;0,25737
1014,3737;0,260931
1015,3379;0,264362
1016,3021;0,26761
1017,2664;0,270644
1018,2306;0,27346
1019,1948;0,276073
1020,1591;0,278513
1021,1233;0,280823
1022,0875;0,283041
1023,0518;0,2852
1024,0160;0,287313
1024,9802;0,289373
1025,9445;0,291352
1026,9087;0,293206
1027,8729;0,294874
1028,8372;0,296283
1029,8014;0,297337
1030,7656;0,297926
1031,7299;0,297929
1032,6941;0,297244
1033,6583;0,295815
1034,6226;0,293671
1035,5868;0,290934
1036,5510;0,287815
1037,5153;0,284573
1038,4795;0,281468
1039,4437;0,278719
1040,4080;0,276472
1041,3722;0,274789
1042,3364;0,273651
1043,3007;0,272969
1044,2649;0,272607
1045,2291;0,272403
1046,1934;0,272206
1047,1576;0,271892
1048,1218;0,271382
1049,0861;0,270628
1050,0503;0,269597
1051,0145;0,268262
1051,9788;0,266591
1052,9430;0,264568
1053,9072;0,262195
1054,8715;0,259494
1055,8357;0,256486
1056,7999;0,25316
1057,7642;0,249466
1058,7284;0,245335
1059,6926;0,240721
1060,6569;0,235653
1061,6211;0,230251
1062,5853;0,224712
1063,5496;0,219259
1064,5138;0,214082
1065,4780;0,209302
1066,4423;0,204961
1067,4065;0,201042
1068,3707;0,197493
1069,3350;0,194252
1070,2992;0,191254
1071,2634;0,188432
1072,2277;0,185719
1073,1919;0,183045
1074,1561;0,180344
1075,1204;0,177571
1076,0846;0,17471
1077,0488;0,171781
1078,0131;0,16884
1078,9773;0,165962
1079,9415;0,16323
1080,9058;0,160716
1081,8700;0,158463
1082,8342;0,156491
1083,7985;0,154791
1084,7627;0,153341
1085,7269;0,152112
1086,6912;0,15108
1087,6554;0,15023
1088,6196;0,149554
1089,5839;0,149055
1090,5481;0,148738
1091,5123;0,148605
1092,4766;0,148655
1093,4408;0,148878
1094,4050;0,149257
1095,3693;0,149774
1096,3335;0,150406
1097,2977;0,151133
1098,2620;0,151927
1099,2262;0,152759
1100,1904;0,153585
1101,1547;0,154355
1102,1189;0,155014
1103,0831;0,155513
1104,0474;0,15582
1105,0116;0,155928
1105,9758;0,155851
1106,9401;0,155613
1107,9043;0,155228
1108,8685;0,154686
1109,8328;0,153946
1110,7970;0,152952
1111,7612;0,151653
1112,7255;0,150041
1113,6897;0,148166
1114,6539;0,146139
1115,6182;0,1441
1116,5824;0,142181
1117,5466;0,140465
1118,5109;0,138965
1119,4751;0,137626
1120,4393;0,136347
1121,4036;0,135005
1122,3678;0,133489
1123,3320;0,131717
1124,2963;0,129648
1125,2605;0,127283
1126,2247;0,124662
1127,1890;0,121852
1128,1532;0,11893
1129,1174;0,115964
1130,0817;0,113008
1131,0459;0,110097
1132,0101;0,107256
1132,9744;0,104518
1133,9386;0,101926
1134,9028;0,0995355
1135,8671;0,0974032
1136,8313;0,0955744
1137,7955;0,0940735
1138,7598;0,092902
1139,7240;0,0920428
1140,6882;0,0914668
1141,6525;0,091139
1142,6167;0,0910211
1143,5809;0,0910744
1144,5452;0,091263
1145,5094;0,0915586
1146,4736;0,0919457
1147,4379;0,0924219
1148,4021;0,0929938
1149,3663;0,0936679
1150,3306;0,0944395
1151,2948;0,0952864
1152,2590;0,0961685
1153,2233;0,0970345
1154,1875;0,0978294
1155,1517;0,0985002
1156,1160;0,0989946
1157,0802;0,0992544
1158,0444;0,0992086
1159,0087;0,0987721
1159,9729;0,0978533
1160,9371;0,0963722
1161,9014;0,0942836
1162,8656;0,0915955
1163,8298;0,0883779
1164,7941;0,0847553
1165,7583;0,0808877
1166,7225;0,0769446
1167,6868;0,0730802
1168,6510;0,0694156
1169,6152;0,0660307
1170,5795;0,0629651
1171,5437;0,0602273
1172,5079;0,0578069
1173,4722;0,0556864
1174,4364;0,0538486
1175,4006;0,0522786
1176,3649;0,0509606
1177,3291;0,0498739
1178,2933;0,0489901
1179,2576;0,0482744
1180,2218;0,0476916
1181,1860;0,0472124
1182,1503;0,0468194
1183,1145;0,0465072
1184,0787;0,0462781
1185,0430;0,0461361
1186,0072;0,0460828
1186,9714;0,0461168
1187,9357;0,0462368
1188,8999;0,0464447
1189,8641;0,0467463
1190,8284;0,0471493
1191,7926;0,0476585
1192,7568;0,0482737
1193,7211;0,0489887
1194,6853;0,0497926
1195,6495;0,0506711
1196,6138;0,0516068
1197,5780;0,0525791
1198,5422;0,0535655
1199,5065;0,0543157
1200,4707;0,0553002
1201,4349;0,0562564
1202,3992;0,0571819
1203,3634;0,0580767
1204,3276;0,0589389
1205,2919;0,0597638
1206,2561;0,0605481
1207,2203;0,0612962
1208,1846;0,0620262
1209,1488;0,0627697
1210,1130;0,0635648
1211,0773;0,0644452
1212,0415;0,0654295
1213,0057;0,066517
1213,9700;0,0676903
1214,9342;0,0689241
1215,8984;0,0701936
1216,8627;0,0714777
1217,8269;0,0727574
1218,7911;0,0740168
1219,7554;0,0752397
1220,7196;0,0764108
1221,6838;0,0775178
1222,6481;0,0785536
1223,6123;0,0795159
1224,5765;0,080406
1225,5408;0,0812271
1226,5050;0,0819834
1227,4692;0,0826792
1228,4335;0,0833186
1229,3977;0,0839036
1230,3619;0,084433
1231,3262;0,0849019
1232,2904;0,0853036
1233,2546;0,0856324
1234,2189;0,0858876
1235,1831;0,0860754
1236,1473;0,0862091
1237,1116;0,0863055
1238,0758;0,0863793
1239,0400;0,0864388
1240,0043;0,0864833
1240,9685;0,0865038
1241,9327;0,0864871
1242,8970;0,0864199
1243,8612;0,0862913
1244,8254;0,0860948
1245,7897;0,0858285
1246,7539;0,0854963
1247,7181;0,0851084
1248,6824;0,084681
1249,6466;0,0842329
1250,6108;0,0837814
1251,5751;0,0833389
1252,5393;0,0829114
1253,5035;0,0825005
1254,4678;0,0821048
1255,4320;0,0817197
1256,3962;0,0813365
1257,3605;0,0809407
1258,3247;0,0805153
1259,2889;0,0800456
1260,2532;0,079525
1261,2174;0,0789561
1262,1816;0,0783472
1263,1459;0,0777058
1264,1101;0,0770348
1265,0743;0,0763333
1266,0386;0,0755993
1267,0028;0,0748328
1267,9670;0,0740359
1268,9313;0,0732111
1269,8955;0,0723601
1270,8597;0,0714839
1271,8240;0,0705852
1272,7882;0,0696709
1273,7524;0,0687526
1274,7167;0,0678458
1275,6809;0,0669657
1276,6451;0,0661225
1277,6094;0,0653161
1278,5736;0,0645342
1279,5378;0,063756
1280,5021;0,062962
1281,4663;0,0621447
1282,4305;0,0613136
1283,3948;0,0604917
1284,3590;0,0597063
1285,3232;0,0589778
1286,2875;0,0583144
1287,2517;0,0577137
1288,2159;0,0571697
1289,1802;0,0566799
1290,1444;0,0562492
1291,1086;0,0558885
1292,0729;0,0556111
1293,0371;0,0554285
1294,0013;0,0553484
1294,9656;0,0553733
1295,9298;0,0555015
1296,8940;0,0557297
1297,8583;0,0560552
1298,8225;0,0564771
1299,7867;0,0569949
1300,7510;0,0576053
1301,7152;0,0583031
1302,6794;0,0590782
1303,6437;0,0599193
1304,6079;0,0608184
1305,5721;0,0617706
1306,5364;0,0627714
1307,5006;0,063815
1308,4648;0,0648924
1309,4291;0,06599
1310,3933;0,0670884
1311,3575;0,0681611
1312,3218;0,0691752
1313,2860;0,070096
1314,2502;0,0708913
1315,2145;0,0715326
1316,1787;0,0719918
1317,1429;0,0722424
1318,1072;0,0722686
1319,0714;0,0720822
1320,0356;0,0717316
1320,9999;0,0712914
1321,9641;0,070836
1322,9283;0,0704171
1323,8926;0,0700577
1324,8568;0,0697591
1325,8210;0,0695128
1326,7853;0,0693085
1327,7495;0,0691363
1328,7137;0,0689838
1329,6780;0,0688331
1330,6422;0,0686627
1331,6064;0,0684561
1332,5707;0,0682075
1333,5349;0,0679258
1334,4991;0,0676244
1335,4634;0,0673046
1336,4276;0,0669403
1337,3918;0,0664733
1338,3561;0,0658365
1339,3203;0,0650093
1340,2845;0,0640591
1341,2488;0,0631104
1342,2130;0,0622667
1343,1772;0,0615671
1344,1415;0,0610023
1345,1057;0,0605491
1346,0699;0,0601934
1347,0342;0,0599366
1347,9984;0,0597927
1348,9626;0,0597795
1349,9269;0,0599067
1350,8911;0,0601671
1351,8553;0,0605368
1352,8196;0,0609834
1353,7838;0,0614786
1354,7480;0,0620083
1355,7123;0,0625739
1356,6765;0,0631847
1357,6407;0,0638479
1358,6050;0,064564
1359,5692;0,0653237
