TITLE;
DATA TYPE;INFRARED SPECTRUM
ORIGIN;JASCO
OWNER;
DATE;25/02/04
TIME;11:25:19
SPECTROMETER/DATA SYSTEM;
LOCALE;9226
RESOLUTION;
DELTAX;0,964233
XUNITS;1/CM
YUNITS;ABSORBANCE
FIRSTX;  399,1927
LASTX; 4000,6047
NPOINTS;    3736
FIRSTY;     0,20048
MAXY;     0,25728
MINY;     0,00954
XYDATA
399,1927;0,200482
400,1569;0,200627
401,1211;0,199605
402,0854;0,198037
403,0496;0,19646
404,0138;0,195289
404,9781;0,194796
405,9423;0,195027
406,9065;0,195748
407,8708;0,19655
408,8350;0,197069
409,7992;0,197165
410,7635;0,196933
411,7277;0,196568
412,6919;0,196183
413,6562;0,195765
414,6204;0,195256
415,5846;0,194711
416,5489;0,1944
417,5131;0,194775
418,4773;0,196129
419,4416;0,198084
420,4058;0,199762
421,3700;0,200652
422,3343;0,200908
423,2985;0,200979
424,2627;0,201237
425,2270;0,201815
426,1912;0,2026
427,1554;0,203363
428,1197;0,203939
429,0839;0,204321
430,0481;0,204624
431,0124;0,204976
431,9766;0,20543
432,9408;0,205949
433,9051;0,206453
434,8693;0,206868
435,8335;0,207147
436,7978;0,207246
437,7620;0,207126
438,7262;0,206767
439,6905;0,206213
440,6547;0,205588
441,6189;0,205065
442,5832;0,204794
443,5474;0,204809
444,5116;0,205002
445,4759;0,205202
446,4401;0,205288
447,4043;0,205252
448,3686;0,205164
449,3328;0,205101
450,2970;0,205089
451,2613;0,205089
452,2255;0,205032
453,1897;0,20487
454,1540;0,204608
455,1182;0,204298
456,0824;0,204019
457,0467;0,203843
458,0109;0,203807
458,9751;0,203908
459,9394;0,204116
460,9036;0,204404
461,8678;0,204748
462,8321;0,205104
463,7963;0,205387
464,7605;0,205484
465,7248;0,205299
466,6890;0,204819
467,6532;0,20414
468,6175;0,203441
469,5817;0,202926
470,5459;0,202756
471,5102;0,202986
472,4744;0,203521
473,4386;0,20414
474,4029;0,20461
475,3671;0,204799
476,3313;0,204707
477,2956;0,204426
478,2598;0,204081
479,2240;0,203778
480,1883;0,203582
481,1525;0,203512
482,1167;0,20356
483,0810;0,203714
484,0452;0,203958
485,0094;0,204268
485,9737;0,204599
486,9379;0,204895
487,9021;0,20511
488,8664;0,20522
489,8306;0,205226
490,7948;0,205147
491,7591;0,205014
492,7233;0,204862
493,6875;0,204733
494,6518;0,20467
495,6160;0,204712
496,5802;0,204875
497,5445;0,205139
498,5087;0,205451
499,4729;0,205739
500,4372;0,205933
501,4014;0,205992
502,3656;0,205924
503,3299;0,205784
504,2941;0,205652
505,2583;0,205605
506,2226;0,205699
507,1868;0,205957
508,1510;0,206363
509,1153;0,206861
510,0795;0,207374
511,0437;0,207831
512,0080;0,208193
512,9722;0,20846
513,9365;0,208664
514,9007;0,208851
515,8649;0,209067
516,8292;0,20934
517,7934;0,209666
518,7576;0,210001
519,7219;0,210267
520,6861;0,21039
521,6503;0,210319
522,6146;0,210054
523,5788;0,209649
524,5430;0,209207
525,5073;0,208844
526,4715;0,208633
527,4357;0,208555
528,4000;0,208514
529,3642;0,208398
530,3284;0,208148
531,2927;0,207779
532,2569;0,207359
533,2211;0,206969
534,1854;0,20666
535,1496;0,206433
536,1138;0,206254
537,0781;0,206089
538,0423;0,20592
539,0065;0,205754
539,9708;0,205613
540,9350;0,205524
541,8992;0,205511
542,8635;0,205598
543,8277;0,2058
544,7919;0,206115
545,7562;0,206519
546,7204;0,206971
547,6846;0,207435
548,6489;0,207893
549,6131;0,208348
550,5773;0,208804
551,5416;0,209254
552,5058;0,209672
553,4700;0,210029
554,4343;0,2103
555,3985;0,210469
556,3627;0,210507
557,3270;0,210348
558,2912;0,209898
559,2554;0,209062
560,2197;0,207804
561,1839;0,206183
562,1481;0,204353
563,1124;0,202512
564,0766;0,200828
565,0408;0,199393
566,0051;0,198216
566,9693;0,197253
567,9335;0,196451
568,8978;0,195776
569,8620;0,195213
570,8262;0,194753
571,7905;0,194383
572,7547;0,194083
573,7189;0,193833
574,6832;0,193619
575,6474;0,193424
576,6116;0,193221
577,5759;0,192977
578,5401;0,192664
579,5043;0,192274
580,4686;0,191837
581,4328;0,191412
582,3970;0,19107
583,3613;0,190859
584,3255;0,190787
585,2897;0,190819
586,2540;0,190893
587,2182;0,190955
588,1824;0,190972
589,1467;0,190939
590,1109;0,190873
591,0751;0,190789
592,0394;0,190695
593,0036;0,19058
593,9678;0,190423
594,9321;0,190202
595,8963;0,189911
596,8605;0,189559
597,8248;0,18917
598,7890;0,188772
599,7532;0,188382
600,7175;0,187998
601,6817;0,187606
602,6459;0,187193
603,6102;0,186764
604,5744;0,186336
605,5386;0,18592
606,5029;0,185505
607,4671;0,185051
608,4313;0,184513
609,3956;0,183871
610,3598;0,183151
611,3240;0,182421
612,2883;0,181747
613,2525;0,181162
614,2167;0,180639
615,1810;0,180106
616,1452;0,179477
617,1094;0,17869
618,0737;0,177729
619,0379;0,176626
620,0021;0,175434
620,9664;0,174199
621,9306;0,172966
622,8948;0,171776
623,8591;0,170682
624,8233;0,169734
625,7875;0,168955
626,7518;0,168335
627,7160;0,167824
628,6802;0,167348
629,6445;0,166837
630,6087;0,166246
631,5729;0,165567
632,5372;0,164827
633,5014;0,164072
634,4656;0,163351
635,4299;0,162691
636,3941;0,1621
637,3583;0,161574
638,3226;0,161105
639,2868;0,160693
640,2510;0,160332
641,2153;0,159999
642,1795;0,159663
643,1437;0,159288
644,1080;0,158862
645,0722;0,158402
646,0364;0,157943
647,0007;0,157522
647,9649;0,15716
648,9291;0,156865
649,8934;0,156641
650,8576;0,156503
651,8218;0,156464
652,7861;0,156531
653,7503;0,15669
654,7145;0,156918
655,6788;0,157193
656,6430;0,157504
657,6072;0,157836
658,5715;0,158146
659,5357;0,158355
660,4999;0,158385
661,4642;0,158221
662,4284;0,157948
663,3926;0,157697
664,3569;0,157572
665,3211;0,157572
666,2853;0,157531
667,2496;0,157075
668,2138;0,155817
669,1780;0,153874
670,1423;0,151841
671,1065;0,150082
672,0707;0,148561
673,0350;0,147106
673,9992;0,145587
674,9634;0,143969
675,9277;0,142316
676,8919;0,14074
677,8561;0,139317
678,8204;0,138062
679,7846;0,136952
680,7488;0,135969
681,7131;0,1351
682,6773;0,134326
683,6415;0,133619
684,6058;0,132952
685,5700;0,132315
686,5342;0,13172
687,4985;0,131185
688,4627;0,130722
689,4269;0,13033
690,3912;0,130004
691,3554;0,129732
692,3196;0,1295
693,2839;0,129288
694,2481;0,129067
695,2123;0,128809
696,1766;0,128496
697,1408;0,128128
698,1050;0,127721
699,0693;0,127295
700,0335;0,126869
700,9977;0,126442
701,9620;0,125998
702,9262;0,12551
703,8904;0,124955
704,8547;0,124327
705,8189;0,123653
706,7831;0,122981
707,7474;0,122356
708,7116;0,121792
709,6758;0,121261
710,6401;0,120702
711,6043;0,120057
712,5685;0,119303
713,5328;0,118474
714,4970;0,117638
715,4612;0,116916
716,4255;0,116211
717,3897;0,115548
718,3539;0,114854
719,3182;0,114054
720,2824;0,113113
721,2466;0,112056
722,2109;0,110949
723,1751;0,109858
724,1393;0,108825
725,1036;0,107863
726,0678;0,106963
727,0320;0,106113
727,9963;0,105296
728,9605;0,104502
729,9247;0,103724
730,8890;0,102959
731,8532;0,102216
732,8174;0,101505
733,7817;0,100839
734,7459;0,100225
735,7101;0,0996627
736,6744;0,0991504
737,6386;0,0986812
738,6028;0,0982453
739,5671;0,0978289
740,5313;0,0974166
741,4955;0,0969966
742,4598;0,0965639
743,4240;0,0961209
744,3882;0,0956733
745,3525;0,0952255
746,3167;0,0947777
747,2809;0,0943276
748,2452;0,0938744
749,2094;0,0934203
750,1736;0,0929706
751,1379;0,0925306
752,1021;0,0921016
753,0663;0,0916795
754,0306;0,0912552
754,9948;0,0908191
755,9590;0,0903666
756,9233;0,0899027
757,8875;0,0894425
758,8517;0,0890049
759,8160;0,0886045
760,7802;0,0882446
761,7444;0,0879153
762,7087;0,0875987
763,6729;0,0872766
764,6371;0,0869372
765,6014;0,0865776
766,5656;0,086204
767,5298;0,0858289
768,4941;0,085467
769,4583;0,0851296
770,4225;0,0848179
771,3868;0,0845215
772,3510;0,0842221
773,3152;0,0839042
774,2795;0,0835646
775,2437;0,0832147
776,2079;0,0828723
777,1722;0,0825482
778,1364;0,0822374
779,1006;0,0819229
780,0649;0,0815883
781,0291;0,0812313
781,9933;0,0808661
782,9576;0,0805144
783,9218;0,0801916
784,8860;0,0798977
785,8503;0,0796193
786,8145;0,0793395
787,7787;0,0790487
788,7430;0,078749
789,7072;0,0784517
790,6714;0,078172
791,6357;0,0779234
792,5999;0,0777136
793,5641;0,0775413
794,5284;0,077396
795,4926;0,0772597
796,4568;0,077115
797,4211;0,0769523
798,3853;0,0767743
799,3495;0,0765917
800,3138;0,076414
801,2780;0,0762423
802,2422;0,0760701
803,2065;0,0758907
804,1707;0,0757055
805,1349;0,0755262
806,0992;0,0753673
807,0634;0,0752376
808,0276;0,075134
808,9919;0,0750449
809,9561;0,0749577
810,9203;0,074866
811,8846;0,0747715
812,8488;0,0746812
813,8130;0,0746035
814,7773;0,0745456
815,7415;0,0745125
816,7057;0,0745053
817,6700;0,0745199
818,6342;0,0745458
819,5984;0,0745679
820,5627;0,074572
821,5269;0,0745507
822,4911;0,0745061
823,4554;0,0744487
824,4196;0,074392
825,3839;0,0743463
826,3481;0,074315
827,3123;0,0742937
828,2766;0,0742728
829,2408;0,0742407
830,2050;0,0741869
831,1693;0,0741035
832,1335;0,0739862
833,0977;0,0738346
834,0620;0,0736514
835,0262;0,0734428
835,9904;0,0732178
836,9547;0,0729868
837,9189;0,0727606
838,8831;0,0725481
839,8474;0,0723548
840,8116;0,0721825
841,7758;0,0720302
842,7401;0,0718961
843,7043;0,0717797
844,6685;0,0716809
845,6328;0,0715992
846,5970;0,0715304
847,5612;0,0714669
848,5255;0,0713999
849,4897;0,0713252
850,4539;0,0712463
851,4182;0,0711751
852,3824;0,0711253
853,3466;0,0711044
854,3109;0,0711081
855,2751;0,0711221
856,2393;0,0711303
857,2036;0,0711251
858,1678;0,0711114
859,1320;0,0711025
860,0963;0,0711108
861,0605;0,0711402
862,0247;0,0711856
862,9890;0,0712408
863,9532;0,0713064
864,9174;0,0713943
865,8817;0,071523
866,8459;0,0717094
867,8101;0,0719627
868,7744;0,0722819
869,7386;0,0726592
870,7028;0,0730824
871,6671;0,073535
872,6313;0,0739949
873,5955;0,074436
874,5598;0,0748338
875,5240;0,0751745
876,4882;0,0754617
877,4525;0,0757172
878,4167;0,0759737
879,3809;0,0762651
880,3452;0,0766184
881,3094;0,0770506
882,2736;0,0775701
883,2379;0,0781808
884,2021;0,0788847
885,1663;0,0796824
886,1306;0,080572
887,0948;0,0815465
888,0590;0,0825907
889,0233;0,083681
889,9875;0,0847855
890,9517;0,0858678
891,9160;0,086891
892,8802;0,0878216
893,8444;0,0886312
894,8087;0,0892966
895,7729;0,0897986
896,7371;0,0901232
897,7014;0,0902639
898,6656;0,0902243
899,6298;0,0900205
900,5941;0,0896793
901,5583;0,0892342
902,5225;0,0887203
903,4868;0,0881707
904,4510;0,0876154
905,4152;0,0870807
906,3795;0,08659
907,3437;0,0861617
908,3079;0,0858074
909,2722;0,0855311
910,2364;0,0853316
911,2007;0,085207
912,1649;0,0851586
913,1292;0,0851914
914,0934;0,0853103
915,0576;0,0855136
916,0219;0,0857906
916,9861;0,0861227
917,9503;0,0864906
918,9146;0,0868807
919,8788;0,087287
920,8430;0,0877088
921,8073;0,0881442
922,7715;0,0885865
923,7357;0,0890252
924,7000;0,089449
925,6642;0,0898506
926,6284;0,0902265
927,5927;0,0905764
928,5569;0,0909007
929,5211;0,0912017
930,4854;0,0914859
931,4496;0,0917667
932,4138;0,0920635
933,3781;0,0923983
934,3423;0,0927901
935,3065;0,0932524
936,2708;0,0937928
937,2350;0,0944153
938,1992;0,0951233
939,1635;0,0959205
940,1277;0,0968097
941,0919;0,0977907
942,0562;0,0988596
943,0204;0,10001
943,9846;0,101234
944,9489;0,102529
945,9131;0,103897
946,8773;0,105342
947,8416;0,106872
948,8058;0,108489
949,7700;0,110191
950,7343;0,11197
951,6985;0,113816
952,6627;0,115723
953,6270;0,117689
954,5912;0,119719
955,5554;0,121819
956,5197;0,123993
957,4839;0,126236
958,4481;0,128535
959,4124;0,130871
960,3766;0,133224
961,3408;0,135578
962,3051;0,137927
963,2693;0,140272
964,2335;0,142618
965,1978;0,144975
966,1620;0,147352
967,1262;0,149764
968,0905;0,152233
969,0547;0,15479
970,0189;0,157465
970,9832;0,160287
971,9474;0,163273
972,9116;0,16643
973,8759;0,169761
974,8401;0,173266
975,8043;0,176944
976,7686;0,180786
977,7328;0,184766
978,6970;0,188828
979,6613;0,192879
980,6255;0,196798
981,5897;0,200452
982,5540;0,203723
983,5182;0,206539
984,4824;0,208891
985,4467;0,210834
986,4109;0,212472
987,3751;0,213918
988,3394;0,215267
989,3036;0,216567
990,2678;0,217821
991,2321;0,219002
992,1963;0,220081
993,1605;0,221044
994,1248;0,2219
995,0890;0,222672
996,0532;0,223382
997,0175;0,224041
997,9817;0,22465
998,9459;0,22521
999,9102;0,225739
1000,8744;0,226275
1001,8386;0,226875
1002,8029;0,2276
1003,7671;0,228497
1004,7313;0,229591
1005,6956;0,230884
1006,6598;0,232362
1007,6240;0,234004
1008,5883;0,23579
1009,5525;0,237694
1010,5167;0,239691
1011,4810;0,241741
1012,4452;0,243798
1013,4094;0,245805
1014,3737;0,247702
1015,3379;0,249432
1016,3021;0,250954
1017,2664;0,252247
1018,2306;0,253315
1019,1948;0,254184
1020,1591;0,25489
1021,1233;0,25547
1022,0875;0,25595
1023,0518;0,256348
1024,0160;0,256673
1024,9802;0,256929
1025,9445;0,257119
1026,9087;0,257241
1027,8729;0,257279
1028,8372;0,257197
1029,8014;0,256936
1030,7656;0,256413
1031,7299;0,255547
1032,6941;0,254274
1033,6583;0,252581
1034,6226;0,250521
1035,5868;0,248214
1036,5510;0,24582
1037,5153;0,24351
1038,4795;0,241426
1039,4437;0,239668
1040,4080;0,238278
1041,3722;0,237259
1042,3364;0,236577
1043,3007;0,236176
1044,2649;0,235981
1045,2291;0,235909
1046,1934;0,235871
1047,1576;0,235788
1048,1218;0,235596
1049,0861;0,235248
1050,0503;0,234709
1051,0145;0,233957
1051,9788;0,232975
1052,9430;0,231759
1053,9072;0,230311
1054,8715;0,228638
1055,8357;0,226733
1056,7999;0,224568
1057,7642;0,222098
1058,7284;0,219277
1059,6926;0,216093
1060,6569;0,212593
1061,6211;0,208893
1062,5853;0,205154
1063,5496;0,201543
1064,5138;0,198184
1065,4780;0,195141
1066,4423;0,192409
1067,4065;0,189942
1068,3707;0,187679
1069,3350;0,18556
1070,2992;0,183537
1071,2634;0,18157
1072,2277;0,179614
1073,1919;0,177627
1074,1561;0,17557
1075,1204;0,173426
1076,0846;0,171199
1077,0488;0,168924
1078,0131;0,166655
1078,9773;0,164455
1079,9415;0,162388
1080,9058;0,160511
1081,8700;0,15886
1082,8342;0,157452
1083,7985;0,15628
1084,7627;0,155315
1085,7269;0,154519
1086,6912;0,153857
1087,6554;0,153305
1088,6196;0,152856
1089,5839;0,152515
1090,5481;0,152292
1091,5123;0,152189
1092,4766;0,152199
1093,4408;0,152308
1094,4050;0,152497
1095,3693;0,152748
1096,3335;0,153043
1097,2977;0,153364
1098,2620;0,153689
1099,2262;0,153993
1100,1904;0,154245
1101,1547;0,154417
1102,1189;0,154484
1103,0831;0,154433
1104,0474;0,154263
1105,0116;0,15399
1105,9758;0,153634
1106,9401;0,153214
1107,9043;0,152732
1108,8685;0,152157
1109,8328;0,15143
1110,7970;0,150472
1111,7612;0,149219
1112,7255;0,147649
1113,6897;0,145806
1114,6539;0,143795
1115,6182;0,141751
1116,5824;0,139799
1117,5466;0,138016
1118,5109;0,136415
1119,4751;0,134949
1120,4393;0,133535
1121,4036;0,132077
1122,3678;0,130491
1123,3320;0,128717
1124,2963;0,126728
1125,2605;0,124531
1126,2247;0,122162
1127,1890;0,119677
1128,1532;0,117138
1129,1174;0,114598
1130,0817;0,112096
1131,0459;0,109654
1132,0101;0,107291
1132,9744;0,105026
1133,9386;0,102892
1134,9028;0,100933
1135,8671;0,0992004
1136,8313;0,0977409
1137,7955;0,0965871
1138,7598;0,095752
1139,7240;0,0952289
1140,6882;0,0949946
1141,6525;0,0950151
1142,6167;0,0952497
1143,5809;0,0956554
1144,5452;0,0961905
1145,5094;0,0968188
1146,4736;0,0975147
1147,4379;0,0982642
1148,4021;0,099064
1149,3663;0,0999145
1150,3306;0,10081
1151,2948;0,101733
1152,2590;0,102645
1153,2233;0,103501
1154,1875;0,104246
1155,1517;0,104832
1156,1160;0,105215
1157,0802;0,10535
1158,0444;0,105185
1159,0087;0,104658
1159,9729;0,103698
1160,9371;0,102241
1161,9014;0,100252
1162,8656;0,0977382
1163,8298;0,0947556
1164,7941;0,0914067
1165,7583;0,0878251
1166,7225;0,0841569
1167,6868;0,0805424
1168,6510;0,0771003
1169,6152;0,0739159
1170,5795;0,0710368
1171,5437;0,0684764
1172,5079;0,0662234
1173,4722;0,0642538
1174,4364;0,0625406
1175,4006;0,0610587
1176,3649;0,0597843
1177,3291;0,0586929
1178,2933;0,0577581
1179,2576;0,0569535
1180,2218;0,0562566
1181,1860;0,0556519
1182,1503;0,0551324
1183,1145;0,0546975
1184,0787;0,0543507
1185,0430;0,0540963
1186,0072;0,0539386
1186,9714;0,0538822
1187,9357;0,0539326
1188,8999;0,0540957
1189,8641;0,0543756
1190,8284;0,0547715
1191,7926;0,055276
1192,7568;0,0558753
1193,7211;0,0565526
1194,6853;0,0572914
1195,6495;0,058078
1196,6138;0,0589007
1197,5780;0,0597469
1198,5422;0,0606013
1199,5065;0,061447
1200,4707;0,0622671
1201,4349;0,0630503
1202,3992;0,06379
1203,3634;0,0644824
1204,3276;0,0651223
1205,2919;0,0657024
1206,2561;0,0662161
1207,2203;0,0666655
1208,1846;0,0670677
1209,1488;0,067457
1210,1130;0,0678798
1211,0773;0,0683824
1212,0415;0,0689979
1213,0057;0,0697374
1213,9700;0,0705897
1214,9342;0,071528
1215,8984;0,0725213
1216,8627;0,0735428
1217,8269;0,0745737
1218,7911;0,0756015
1219,7554;0,0766165
1220,7196;0,0776082
1221,6838;0,0785647
1222,6481;0,0794745
1223,6123;0,0803292
1224,5765;0,0811257
1225,5408;0,0818668
1226,5050;0,0825581
1227,4692;0,0832056
1228,4335;0,0838116
1229,3977;0,0843733
1230,3619;0,0848835
1231,3262;0,0853319
1232,2904;0,0857084
1233,2546;0,086005
1234,2189;0,0862195
1235,1831;0,086356
1236,1473;0,0864257
1237,1116;0,0864443
1238,0758;0,0864276
1239,0400;0,0863869
1240,0043;0,0863258
1240,9685;0,0862405
1241,9327;0,0861225
1242,8970;0,0859629
1243,8612;0,0857551
1244,8254;0,0854962
1245,7897;0,0851875
1246,7539;0,0848336
1247,7181;0,0844427
1248,6824;0,0840258
1249,6466;0,0835955
1250,6108;0,0831638
1251,5751;0,082741
1252,5393;0,0823347
1253,5035;0,0819493
1254,4678;0,081585
1255,4320;0,0812375
1256,3962;0,0808983
1257,3605;0,0805569
1258,3247;0,0802033
1259,2889;0,0798307
1260,2532;0,0794357
1261,2174;0,079016
1262,1816;0,0785684
1263,1459;0,0780882
1264,1101;0,0775705
1265,0743;0,0770125
1266,0386;0,0764142
1267,0028;0,0757778
1267,9670;0,0751074
1268,9313;0,074409
1269,8955;0,0736911
1270,8597;0,072964
1271,8240;0,0722373
1272,7882;0,0715167
1273,7524;0,0708035
1274,7167;0,0700969
1275,6809;0,0693982
1276,6451;0,0687111
1277,6094;0,0680391
1278,5736;0,0673807
1279,5378;0,0667268
1280,5021;0,0660648
1281,4663;0,0653866
1282,4305;0,0646954
1283,3948;0,0640067
1284,3590;0,063343
1285,3232;0,0627262
1286,2875;0,0621728
1287,2517;0,0616927
1288,2159;0,0612904
1289,1802;0,0609669
1290,1444;0,0607203
1291,1086;0,0605469
1292,0729;0,0604436
1293,0371;0,0604109
1294,0013;0,0604539
1294,9656;0,0605809
1295,9298;0,0607997
1296,8940;0,061114
1297,8583;0,0615217
1298,8225;0,0620165
1299,7867;0,0625897
1300,7510;0,0632316
1301,7152;0,0639319
1302,6794;0,0646816
1303,6437;0,0654747
1304,6079;0,0663087
1305,5721;0,0671828
1306,5364;0,0680934
1307,5006;0,0690311
1308,4648;0,0699808
1309,4291;0,0709245
1310,3933;0,0718444
1311,3575;0,0727224
1312,3218;0,0735374
1313,2860;0,0742629
1314,2502;0,0748664
1315,2145;0,0753146
1316,1787;0,0755798
1317,1429;0,0756496
1318,1072;0,0755359
1319,0714;0,0752786
1320,0356;0,0749363
1320,9999;0,0745682
1321,9641;0,0742165
1322,9283;0,0739016
1323,8926;0,0736289
1324,8568;0,0733992
1325,8210;0,0732148
1326,7853;0,0730797
1327,7495;0,0729942
1328,7137;0,0729501
1329,6780;0,072928
1330,6422;0,0728999
1331,6064;0,0728351
1332,5707;0,0727069
1333,5349;0,0724954
1334,4991;0,072185
1335,4634;0,071759
1336,4276;0,071202
1337,3918;0,0705124
1338,3561;0,0697235
1339,3203;0,0689104
1340,2845;0,0681619
1341,2488;0,0675325
1342,2130;0,0670232
1343,1772;0,0666004
1344,1415;0,0662288
1345,1057;0,0658935
1346,0699;0,0656054
1347,0342;0,0653943
1347,9984;0,0652936
1348,9626;0,0653241
1349,9269;0,0654846
1350,8911;0,0657531
1351,8553;0,0660966
1352,8196;0,0664853
1353,7838;0,0669031
1354,7480;0,0673509
1355,7123;0,0678383
1356,6765;0,0683698
1357,6407;0,068936
1358,6050;0,0695149
1359,5692;0,0700812
1360,5334;0,0706155
1361,4977;0,0711108
