TITLE;
DATA TYPE;INFRARED SPECTRUM
ORIGIN;JASCO
OWNER;
DATE;25/02/04
TIME;11:02:13
SPECTROMETER/DATA SYSTEM;
LOCALE;9226
RESOLUTION;
DELTAX;0,964233
XUNITS;1/CM
YUNITS;ABSORBANCE
FIRSTX;  399,1927
LASTX; 4000,6047
NPOINTS;    3736
FIRSTY;     0,16044
MAXY;     0,23260
MINY;     0,00531
XYDATA
399,1927;0,160444
400,1569;0,161226
401,1211;0,162053
402,0854;0,162843
403,0496;0,163605
404,0138;0,164348
404,9781;0,165022
405,9423;0,165516
406,9065;0,165721
407,8708;0,165621
408,8350;0,165338
409,7992;0,165109
410,7635;0,165184
411,7277;0,165675
412,6919;0,166473
413,6562;0,167299
414,6204;0,167858
415,5846;0,167959
416,5489;0,167605
417,5131;0,16708
418,4773;0,166941
419,4416;0,167634
420,4058;0,169017
421,3700;0,170567
422,3343;0,171911
423,2985;0,172964
424,2627;0,173791
425,2270;0,17448
426,1912;0,175077
427,1554;0,175589
428,1197;0,176013
429,0839;0,176361
430,0481;0,176655
431,0124;0,176911
431,9766;0,177121
432,9408;0,177267
433,9051;0,177352
434,8693;0,177404
435,8335;0,177468
436,7978;0,177563
437,7620;0,177672
438,7262;0,177756
439,6905;0,177791
440,6547;0,177794
441,6189;0,177805
442,5832;0,177861
443,5474;0,17796
444,5116;0,17806
445,4759;0,178108
446,4401;0,178073
447,4043;0,177952
448,3686;0,177776
449,3328;0,177604
450,2970;0,177515
451,2613;0,177576
452,2255;0,177799
453,1897;0,178098
454,1540;0,178311
455,1182;0,178274
456,0824;0,177922
457,0467;0,177379
458,0109;0,176931
458,9751;0,176849
459,9394;0,177189
460,9036;0,177773
461,8678;0,178361
462,8321;0,178797
463,7963;0,179059
464,7605;0,179217
465,7248;0,17935
466,6890;0,179467
467,6532;0,179501
468,6175;0,179362
469,5817;0,179022
470,5459;0,17856
471,5102;0,178146
472,4744;0,177952
473,4386;0,17805
474,4029;0,178367
475,3671;0,17876
476,3313;0,179108
477,2956;0,179347
478,2598;0,179466
479,2240;0,179475
480,1883;0,179395
481,1525;0,179254
482,1167;0,179101
483,0810;0,179006
484,0452;0,179042
485,0094;0,179236
485,9737;0,179553
486,9379;0,179907
487,9021;0,180202
488,8664;0,180371
489,8306;0,180397
490,7948;0,180318
491,7591;0,18021
492,7233;0,180161
493,6875;0,18022
494,6518;0,180371
495,6160;0,180534
496,5802;0,180611
497,5445;0,18053
498,5087;0,180294
499,4729;0,179983
500,4372;0,179722
501,4014;0,179625
502,3656;0,179722
503,3299;0,179948
504,2941;0,180196
505,2583;0,180393
506,2226;0,180543
507,1868;0,180703
508,1510;0,180931
509,1153;0,181236
510,0795;0,18157
511,0437;0,181869
512,0080;0,182103
512,9722;0,1823
513,9365;0,182527
514,9007;0,182846
515,8649;0,183266
516,8292;0,183724
517,7934;0,184106
518,7576;0,184318
519,7219;0,18434
520,6861;0,184228
521,6503;0,184066
522,6146;0,183915
523,5788;0,183799
524,5430;0,183718
525,5073;0,183673
526,4715;0,183665
527,4357;0,183696
528,4000;0,183741
529,3642;0,183749
530,3284;0,183655
531,2927;0,183416
532,2569;0,18303
533,2211;0,182554
534,1854;0,182073
535,1496;0,181668
536,1138;0,181378
537,0781;0,181195
538,0423;0,181081
539,0065;0,180996
539,9708;0,180917
540,9350;0,180843
541,8992;0,180777
542,8635;0,180729
543,8277;0,18071
544,7919;0,180747
545,7562;0,180883
546,7204;0,181158
547,6846;0,181588
548,6489;0,182142
549,6131;0,182745
550,5773;0,183313
551,5416;0,18379
552,5058;0,184171
553,4700;0,184485
554,4343;0,184757
555,3985;0,184963
556,3627;0,185028
557,3270;0,184849
558,2912;0,184344
559,2554;0,183501
560,2197;0,182374
561,1839;0,181073
562,1481;0,179713
563,1124;0,178391
564,0766;0,177165
565,0408;0,17606
566,0051;0,175079
566,9693;0,174215
567,9335;0,173459
568,8978;0,172804
569,8620;0,172246
570,8262;0,17178
571,7905;0,171403
572,7547;0,171109
573,7189;0,170887
574,6832;0,170718
575,6474;0,170578
576,6116;0,170445
577,5759;0,170312
578,5401;0,170179
579,5043;0,170051
580,4686;0,169927
581,4328;0,169797
582,3970;0,169651
583,3613;0,169496
584,3255;0,169355
585,2897;0,169259
586,2540;0,169222
587,2182;0,169228
588,1824;0,16923
589,1467;0,169175
590,1109;0,169034
591,0751;0,168821
592,0394;0,168593
593,0036;0,16841
593,9678;0,168301
594,9321;0,168244
595,8963;0,168178
596,8605;0,168037
597,8248;0,167784
598,7890;0,167425
599,7532;0,167002
600,7175;0,166566
601,6817;0,166147
602,6459;0,165744
603,6102;0,165343
604,5744;0,164932
605,5386;0,164514
606,5029;0,164097
607,4671;0,16368
608,4313;0,163243
609,3956;0,162759
610,3598;0,162213
611,3240;0,161628
612,2883;0,161055
613,2525;0,160544
614,2167;0,160105
615,1810;0,159692
616,1452;0,159214
617,1094;0,158578
618,0737;0,15774
619,0379;0,156729
620,0021;0,155621
620,9664;0,154494
621,9306;0,153405
622,8948;0,152383
623,8591;0,151451
624,8233;0,150627
625,7875;0,149928
626,7518;0,149353
627,7160;0,148878
628,6802;0,148463
629,6445;0,148061
630,6087;0,147632
631,5729;0,147152
632,5372;0,146611
633,5014;0,146021
634,4656;0,145408
635,4299;0,144809
636,3941;0,144265
637,3583;0,143798
638,3226;0,143413
639,2868;0,143092
640,2510;0,142806
641,2153;0,142525
642,1795;0,14223
643,1437;0,141912
644,1080;0,141572
645,0722;0,141217
646,0364;0,140855
647,0007;0,140494
647,9649;0,140146
648,9291;0,139828
649,8934;0,139562
650,8576;0,139368
651,8218;0,139258
652,7861;0,13923
653,7503;0,139273
654,7145;0,139378
655,6788;0,139542
656,6430;0,139772
657,6072;0,140058
658,5715;0,140361
659,5357;0,140596
660,4999;0,140669
661,4642;0,140538
662,4284;0,14025
663,3926;0,13992
664,3569;0,139666
665,3211;0,139554
666,2853;0,139554
667,2496;0,139455
668,2138;0,138882
669,1780;0,137659
670,1423;0,136085
671,1065;0,134512
672,0707;0,133034
673,0350;0,131591
673,9992;0,130118
674,9634;0,12861
675,9277;0,127119
676,8919;0,125705
677,8561;0,124392
678,8204;0,123163
679,7846;0,121999
680,7488;0,120915
681,7131;0,119952
682,6773;0,119142
683,6415;0,118488
684,6058;0,117955
685,5700;0,117501
686,5342;0,117092
687,4985;0,116706
688,4627;0,116337
689,4269;0,115979
690,3912;0,115631
691,3554;0,11529
692,3196;0,114957
693,2839;0,114631
694,2481;0,114314
695,2123;0,114002
696,1766;0,11369
697,1408;0,113366
698,1050;0,113019
699,0693;0,11264
700,0335;0,112225
700,9977;0,111773
701,9620;0,111284
702,9262;0,110762
703,8904;0,110207
704,8547;0,109629
705,8189;0,109041
706,7831;0,108462
707,7474;0,107906
708,7116;0,107376
709,6758;0,106861
710,6401;0,106341
711,6043;0,105792
712,5685;0,105206
713,5328;0,104591
714,4970;0,103971
715,4612;0,103361
716,4255;0,10278
717,3897;0,102202
718,3539;0,101583
719,3182;0,100879
720,2824;0,100068
721,2466;0,0991633
722,2109;0,0982015
723,1751;0,0972243
724,1393;0,0962612
725,1036;0,0953298
726,0678;0,0944451
727,0320;0,0936234
727,9963;0,0928778
728,9605;0,0922088
729,9247;0,0916004
730,8890;0,0910265
731,8532;0,0904642
732,8174;0,0899039
733,7817;0,0893502
734,7459;0,0888152
735,7101;0,0883091
736,6744;0,0878353
737,6386;0,0873897
738,6028;0,0869641
739,5671;0,0865497
740,5313;0,0861403
741,4955;0,0857347
742,4598;0,085336
743,4240;0,0849501
744,3882;0,0845805
745,3525;0,0842249
746,3167;0,0838748
747,2809;0,0835188
748,2452;0,0831482
749,2094;0,0827606
750,1736;0,0823596
751,1379;0,0819509
752,1021;0,0815378
753,0663;0,0811195
754,0306;0,0806929
754,9948;0,0802568
755,9590;0,0798156
756,9233;0,0793799
757,8875;0,0789631
758,8517;0,0785763
759,8160;0,0782233
760,7802;0,0778992
761,7444;0,0775937
762,7087;0,0772959
763,6729;0,0769993
764,6371;0,0767025
765,6014;0,0764067
766,5656;0,0761112
767,5298;0,075812
768,4941;0,0755034
769,4583;0,0751832
770,4225;0,0748557
771,3868;0,0745307
772,3510;0,074219
773,3152;0,0739268
774,2795;0,0736531
775,2437;0,0733922
776,2079;0,073137
777,1722;0,0728815
778,1364;0,0726205
779,1006;0,0723465
780,0649;0,0720506
781,0291;0,071726
781,9933;0,0713748
782,9576;0,0710115
783,9218;0,0706594
784,8860;0,0703413
785,8503;0,0700678
786,8145;0,0698329
787,7787;0,0696171
788,7430;0,0693982
789,7072;0,0691621
790,6714;0,0689092
791,6357;0,0686526
792,5999;0,0684102
793,5641;0,0681962
794,5284;0,0680151
795,4926;0,0678612
796,4568;0,0677231
797,4211;0,06759
798,3853;0,0674558
799,3495;0,0673201
800,3138;0,0671848
801,2780;0,0670501
802,2422;0,066914
803,2065;0,0667748
804,1707;0,0666354
805,1349;0,0665043
806,0992;0,0663917
807,0634;0,0663031
808,0276;0,0662347
808,9919;0,0661756
809,9561;0,0661155
810,9203;0,0660524
811,8846;0,0659944
812,8488;0,0659544
813,8130;0,0659394
814,7773;0,0659442
815,7415;0,0659532
816,7057;0,0659489
817,6700;0,0659221
818,6342;0,0658765
819,5984;0,0658244
820,5627;0,0657782
821,5269;0,0657437
822,4911;0,0657186
823,4554;0,0656978
824,4196;0,0656791
825,3839;0,0656653
826,3481;0,0656623
827,3123;0,0656723
828,2766;0,0656901
829,2408;0,065702
830,2050;0,0656894
831,1693;0,0656359
832,1335;0,0655321
833,0977;0,0653802
834,0620;0,0651927
835,0262;0,0649882
835,9904;0,0647848
836,9547;0,0645922
837,9189;0,0644087
838,8831;0,0642226
839,8474;0,06402
840,8116;0,0637954
841,7758;0,0635581
842,7401;0,0633315
843,7043;0,0631442
844,6685;0,0630167
845,6328;0,0629514
846,5970;0,0629308
847,5612;0,0629254
848,5255;0,0629067
849,4897;0,0628591
850,4539;0,0627835
851,4182;0,0626936
852,3824;0,0626063
853,3466;0,0625338
854,3109;0,0624794
855,2751;0,0624396
856,2393;0,0624092
857,2036;0,0623865
858,1678;0,0623752
859,1320;0,062384
860,0963;0,0624217
861,0605;0,0624932
862,0247;0,0625968
862,9890;0,0627245
863,9532;0,0628664
864,9174;0,0630168
865,8817;0,063178
866,8459;0,0633602
867,8101;0,0635766
868,7744;0,0638365
869,7386;0,0641407
870,7028;0,0644801
871,6671;0,0648392
872,6313;0,0652005
873,5955;0,0655475
874,5598;0,0658674
875,5240;0,0661529
876,4882;0,0664052
877,4525;0,0666357
878,4167;0,0668652
879,3809;0,06712
880,3452;0,0674248
881,3094;0,0677967
882,2736;0,0682437
883,2379;0,0687668
884,2021;0,0693651
885,1663;0,0700395
886,1306;0,0707928
887,0948;0,0716261
888,0590;0,0725332
889,0233;0,0734958
889,9875;0,0744825
890,9517;0,0754526
891,9160;0,0763625
892,8802;0,0771741
893,8444;0,0778597
894,8087;0,0784034
895,7729;0,078798
896,7371;0,0790415
897,7014;0,0791347
898,6656;0,079081
899,6298;0,0788891
900,5941;0,0785743
901,5583;0,078159
902,5225;0,0776717
903,4868;0,077145
904,4510;0,0766137
905,4152;0,0761114
906,3795;0,075666
907,3437;0,0752958
908,3079;0,0750064
909,2722;0,0747937
910,2364;0,0746485
911,2007;0,0745633
912,1649;0,0745349
913,1292;0,0745647
914,0934;0,0746555
915,0576;0,0748088
916,0219;0,0750233
916,9861;0,0752949
917,9503;0,0756154
918,9146;0,0759725
919,8788;0,0763503
920,8430;0,0767332
921,8073;0,0771097
922,7715;0,0774754
923,7357;0,0778313
924,7000;0,078179
925,6642;0,078516
926,6284;0,0788351
927,5927;0,0791282
928,5569;0,079393
929,5211;0,0796354
930,4854;0,0798687
931,4496;0,0801084
932,4138;0,0803688
933,3781;0,0806627
934,3423;0,0810027
935,3065;0,0814026
936,2708;0,0818753
937,2350;0,0824288
938,1992;0,0830631
939,1635;0,0837708
940,1277;0,0845418
941,0919;0,0853685
942,0562;0,08625
943,0204;0,0871925
943,9846;0,0882062
944,9489;0,0893017
945,9131;0,0904855
946,8773;0,091758
947,8416;0,0931136
948,8058;0,0945437
949,7700;0,0960408
950,7343;0,0976023
951,6985;0,0992296
952,6627;0,100924
953,6270;0,102683
954,5912;0,104495
955,5554;0,106344
956,5197;0,108221
957,4839;0,110125
958,4481;0,112066
959,4124;0,11406
960,3766;0,116111
961,3408;0,118214
962,3051;0,120346
963,2693;0,122481
964,2335;0,124598
965,1978;0,126691
966,1620;0,128772
967,1262;0,130866
968,0905;0,133006
969,0547;0,135225
970,0189;0,137557
970,9832;0,140025
971,9474;0,142647
972,9116;0,145433
973,8759;0,148387
974,8401;0,151509
975,8043;0,154801
976,7686;0,158253
977,7328;0,161843
978,6970;0,165524
979,6613;0,169218
980,6255;0,172822
981,5897;0,176222
982,5540;0,179316
983,5182;0,182035
984,4824;0,184355
985,4467;0,186305
986,4109;0,187947
987,3751;0,189363
988,3394;0,190627
989,3036;0,191794
990,2678;0,192892
991,2321;0,193929
992,1963;0,1949
993,1605;0,195801
994,1248;0,196633
995,0890;0,197403
996,0532;0,19812
997,0175;0,198792
997,9817;0,199428
998,9459;0,200035
999,9102;0,20063
1000,8744;0,201238
1001,8386;0,201897
1002,8029;0,202646
1003,7671;0,203517
1004,7313;0,204533
1005,6956;0,205701
1006,6598;0,207019
1007,6240;0,208481
1008,5883;0,210079
1009,5525;0,211802
1010,5167;0,213631
1011,4810;0,215529
1012,4452;0,217446
1013,4094;0,219323
1014,3737;0,221102
1015,3379;0,222734
1016,3021;0,224192
1017,2664;0,225463
1018,2306;0,226553
1019,1948;0,227485
1020,1591;0,22829
1021,1233;0,229001
1022,0875;0,22965
1023,0518;0,230255
1024,0160;0,230822
1024,9802;0,231342
1025,9445;0,231798
1026,9087;0,232174
1027,8729;0,232449
1028,8372;0,232598
1029,8014;0,232582
1030,7656;0,232346
1031,7299;0,231826
1032,6941;0,230966
1033,6583;0,229737
1034,6226;0,228159
1035,5868;0,226311
1036,5510;0,224317
1037,5153;0,222325
1038,4795;0,220481
1039,4437;0,2189
1040,4080;0,217652
1041,3722;0,216754
1042,3364;0,216175
1043,3007;0,215851
1044,2649;0,215697
1045,2291;0,215624
1046,1934;0,215555
1047,1576;0,215427
1048,1218;0,215193
1049,0861;0,214816
1050,0503;0,214266
1051,0145;0,213519
1051,9788;0,212566
1052,9430;0,211409
1053,9072;0,210063
1054,8715;0,208538
1055,8357;0,206824
1056,7999;0,204884
1057,7642;0,202668
1058,7284;0,200134
1059,6926;0,19728
1060,6569;0,194162
1061,6211;0,190881
1062,5853;0,187567
1063,5496;0,18434
1064,5138;0,181287
1065,4780;0,178455
1066,4423;0,175856
1067,4065;0,173483
1068,3707;0,171314
1069,3350;0,169321
1070,2992;0,167464
1071,2634;0,165695
1072,2277;0,16396
1073,1919;0,162204
1074,1561;0,160384
1075,1204;0,158475
1076,0846;0,156478
1077,0488;0,154415
1078,0131;0,152337
1078,9773;0,150307
1079,9415;0,148392
1080,9058;0,146649
1081,8700;0,145115
1082,8342;0,143799
1083,7985;0,142691
1084,7627;0,141764
1085,7269;0,140989
1086,6912;0,140338
1087,6554;0,13979
1088,6196;0,139332
1089,5839;0,13896
1090,5481;0,138679
1091,5123;0,13849
1092,4766;0,138397
1093,4408;0,138396
1094,4050;0,138476
1095,3693;0,138624
1096,3335;0,138828
1097,2977;0,139075
1098,2620;0,139352
1099,2262;0,13964
1100,1904;0,13991
1101,1547;0,140125
1102,1189;0,140248
1103,0831;0,140255
1104,0474;0,140137
1105,0116;0,139904
1105,9758;0,139582
1106,9401;0,139195
1107,9043;0,138753
1108,8685;0,138241
1109,8328;0,137613
1110,7970;0,136807
1111,7612;0,135765
1112,7255;0,13446
1113,6897;0,13292
1114,6539;0,131224
1115,6182;0,129488
1116,5824;0,127821
1117,5466;0,126299
1118,5109;0,124939
1119,4751;0,123701
1120,4393;0,122506
1121,4036;0,121263
1122,3678;0,119886
1123,3320;0,118322
1124,2963;0,116546
1125,2605;0,114569
1126,2247;0,112421
1127,1890;0,110151
1128,1532;0,107808
1129,1174;0,105438
1130,0817;0,103079
1131,0459;0,100758
1132,0101;0,0984988
1132,9744;0,0963271
1133,9386;0,0942745
1134,9028;0,0923815
1135,8671;0,0906933
1136,8313;0,089252
1137,7955;0,0880873
1138,7598;0,0872106
1139,7240;0,0866141
1140,6882;0,0862745
1141,6525;0,0861597
1142,6167;0,0862339
1143,5809;0,0864622
1144,5452;0,086812
1145,5094;0,087255
1146,4736;0,0877693
1147,4379;0,0883402
1148,4021;0,0889599
1149,3663;0,089624
1150,3306;0,0903255
1151,2948;0,0910493
1152,2590;0,091768
1153,2233;0,0924434
1154,1875;0,093031
1155,1517;0,0934854
1156,1160;0,0937631
1157,0802;0,0938209
1158,0444;0,093611
1159,0087;0,0930781
1159,9729;0,0921621
1160,9371;0,0908096
1161,9014;0,0889907
1162,8656;0,0867134
1163,8298;0,0840305
1164,7941;0,0810338
1165,7583;0,077841
1166,7225;0,074578
1167,6868;0,0713638
1168,6510;0,0682985
1169,6152;0,0654557
1170,5795;0,0628793
1171,5437;0,0605852
1172,5079;0,0585675
1173,4722;0,0568064
1174,4364;0,0552763
1175,4006;0,0539514
1176,3649;0,0528077
1177,3291;0,0518243
1178,2933;0,0509826
1179,2576;0,050267
1180,2218;0,0496638
1181,1860;0,0491614
1182,1503;0,0487491
1183,1145;0,0484185
1184,0787;0,0481642
1185,0430;0,0479855
1186,0072;0,0478865
1186,9714;0,0478744
1187,9357;0,0479563
1188,8999;0,0481366
1189,8641;0,0484162
1190,8284;0,0487924
1191,7926;0,0492609
1192,7568;0,0498162
1193,7211;0,0504526
1194,6853;0,0511625
1195,6495;0,0519351
1196,6138;0,0527553
1197,5780;0,0536043
1198,5422;0,0544618
1199,5065;0,0553225
1200,4707;0,0561462
1201,4349;0,0569411
1202,3992;0,0577054
1203,3634;0,0584378
1204,3276;0,059135
1205,2919;0,0597915
1206,2561;0,0604036
1207,2203;0,0609752
1208,1846;0,0615217
1209,1488;0,0620712
1210,1130;0,0626586
1211,0773;0,0633173
1212,0415;0,0640699
1213,0057;0,0649216
1213,9700;0,0658601
1214,9342;0,0668612
1215,8984;0,0678964
1216,8627;0,0689406
1217,8269;0,0699761
1218,7911;0,0709918
1219,7554;0,0719806
1220,7196;0,0729362
1221,6838;0,0738517
1222,6481;0,0747196
1223,6123;0,075534
1224,5765;0,0762911
1225,5408;0,0769898
1226,5050;0,0776302
1227,4692;0,0782122
1228,4335;0,0787352
1229,3977;0,0791981
1230,3619;0,0795995
1231,3262;0,0799381
1232,2904;0,0802122
1233,2546;0,080421
1234,2189;0,0805655
1235,1831;0,0806504
1236,1473;0,0806847
1237,1116;0,0806794
1238,0758;0,0806437
1239,0400;0,0805813
1240,0043;0,0804897
1240,9685;0,0803622
1241,9327;0,0801926
1242,8970;0,0799777
1243,8612;0,0797177
1244,8254;0,0794147
1245,7897;0,0790711
1246,7539;0,0786896
1247,7181;0,0782746
1248,6824;0,0778337
1249,6466;0,0773771
1250,6108;0,0769165
1251,5751;0,0764638
1252,5393;0,0760293
1253,5035;0,0756208
1254,4678;0,0752409
1255,4320;0,0748855
1256,3962;0,074543
1257,3605;0,0741973
1258,3247;0,0738327
1259,2889;0,0734393
1260,2532;0,0730142
1261,2174;0,0725587
1262,1816;0,0720741
1263,1459;0,0715584
1264,1101;0,0710072
1265,0743;0,0704169
1266,0386;0,0697878
1267,0028;0,0691241
1267,9670;0,0684324
1268,9313;0,0677186
1269,8955;0,0669867
1270,8597;0,0662382
1271,8240;0,0654742
1272,7882;0,0646964
1273,7524;0,0639091
1274,7167;0,0631208
1275,6809;0,0623427
1276,6451;0,0615862
1277,6094;0,0608575
1278,5736;0,0601548
1279,5378;0,0594688
1280,5021;0,058788
1281,4663;0,0581058
1282,4305;0,0574251
1283,3948;0,0567575
1284,3590;0,0561192
1285,3232;0,0555265
1286,2875;0,0549942
1287,2517;0,0545347
1288,2159;0,0541569
1289,1802;0,0538641
1290,1444;0,0536518
1291,1086;0,0535096
1292,0729;0,0534263
1293,0371;0,0533967
1294,0013;0,0534247
1294,9656;0,0535211
1295,9298;0,0536976
1296,8940;0,0539603
1297,8583;0,0543074
1298,8225;0,0547316
1299,7867;0,0552237
1300,7510;0,0557759
1301,7152;0,0563826
1302,6794;0,0570405
1303,6437;0,0577479
1304,6079;0,0585034
1305,5721;0,059304
1306,5364;0,0601419
1307,5006;0,0610047
1308,4648;0,061877
1309,4291;0,0627448
1310,3933;0,0635963
1311,3575;0,0644195
1312,3218;0,0651958
1313,2860;0,0658972
1314,2502;0,0664877
1315,2145;0,0669316
1316,1787;0,067203
1317,1429;0,0672957
1318,1072;0,0672277
1319,0714;0,0670402
1320,0356;0,0667859
1320,9999;0,066512
1321,9641;0,0662481
1322,9283;0,0660057
1323,8926;0,0657853
1324,8568;0,0655861
1325,8210;0,0654102
1326,7853;0,0652621
1327,7495;0,0651448
1328,7137;0,0650545
1329,6780;0,064979
1330,6422;0,0648977
1331,6064;0,0647869
1332,5707;0,0646246
1333,5349;0,0643934
1334,4991;0,0640789
1335,4634;0,0636654
1336,4276;0,0631368
1337,3918;0,0624887
1338,3561;0,0617473
1339,3203;0,0609775
1340,2845;0,0602599
1341,2488;0,0596484
1342,2130;0,0591498
1343,1772;0,0587391
1344,1415;0,0583859
1345,1057;0,0580746
1346,0699;0,0578107
1347,0342;0,0576171
1347,9984;0,057522
1348,9626;0,0575445
1349,9269;0,0576844
1350,8911;0,0579223
1351,8553;0,0582285
1352,8196;0,058576
1353,7838;0,0589519
1354,7480;0,0593598
1355,7123;0,0598108
1356,6765;0,0603095
1357,6407;0,0608462
1358,6050;0,0613985
