TITLE;
DATA TYPE;INFRARED SPECTRUM
ORIGIN;JASCO
OWNER;
DATE;25/02/05
TIME;11:26:16
SPECTROMETER/DATA SYSTEM;
LOCALE;9226
RESOLUTION;
DELTAX;0,964233
XUNITS;1/CM
YUNITS;ABSORBANCE
FIRSTX;  399,1927
LASTX; 4000,6047
NPOINTS;    3736
FIRSTY;     0,18670
MAXY;     0,29546
MINY;    -0,00592
XYDATA
399,1927;0,186696
400,1569;0,186363
401,1211;0,186818
402,0854;0,187582
403,0496;0,188126
404,0138;0,188097
404,9781;0,187438
405,9423;0,186412
406,9065;0,185491
407,8708;0,185116
408,8350;0,185475
409,7992;0,186453
410,7635;0,187734
411,7277;0,188994
412,6919;0,190075
413,6562;0,191036
414,6204;0,192065
415,5846;0,19334
416,5489;0,194906
417,5131;0,196561
418,4773;0,19785
419,4416;0,198416
420,4058;0,198426
421,3700;0,19837
422,3343;0,198577
423,2985;0,199078
424,2627;0,199737
425,2270;0,200383
426,1912;0,200917
427,1554;0,201348
428,1197;0,201758
429,0839;0,20222
430,0481;0,202749
431,0124;0,203295
431,9766;0,203778
432,9408;0,204128
433,9051;0,204317
434,8693;0,204374
435,8335;0,204369
436,7978;0,204389
437,7620;0,204485
438,7262;0,204636
439,6905;0,204754
440,6547;0,204728
441,6189;0,204488
442,5832;0,204047
443,5474;0,203492
444,5116;0,202911
445,4759;0,20233
446,4401;0,20172
447,4043;0,201076
448,3686;0,200458
449,3328;0,199988
450,2970;0,199765
451,2613;0,19979
452,2255;0,199945
453,1897;0,200047
454,1540;0,199948
455,1182;0,199581
456,0824;0,198976
457,0467;0,198239
458,0109;0,197517
458,9751;0,196941
459,9394;0,196568
460,9036;0,196366
461,8678;0,196252
462,8321;0,196133
463,7963;0,195956
464,7605;0,195736
465,7248;0,195564
466,6890;0,195555
467,6532;0,195771
468,6175;0,196169
469,5817;0,196607
470,5459;0,196909
471,5102;0,196955
472,4744;0,196752
473,4386;0,19643
474,4029;0,196156
475,3671;0,196042
476,3313;0,196124
477,2956;0,196387
478,2598;0,19679
479,2240;0,197264
480,1883;0,197718
481,1525;0,198069
482,1167;0,19829
483,0810;0,198441
484,0452;0,198658
485,0094;0,199073
485,9737;0,199726
486,9379;0,200537
487,9021;0,201358
488,8664;0,202049
489,8306;0,20254
490,7948;0,20284
491,7591;0,203017
492,7233;0,203146
493,6875;0,203271
494,6518;0,203391
495,6160;0,203488
496,5802;0,203558
497,5445;0,203631
498,5087;0,203765
499,4729;0,204021
500,4372;0,204428
501,4014;0,204954
502,3656;0,205506
503,3299;0,205978
504,2941;0,206307
505,2583;0,206507
506,2226;0,206652
507,1868;0,206834
508,1510;0,207112
509,1153;0,207493
510,0795;0,207939
511,0437;0,208413
512,0080;0,208904
512,9722;0,209437
513,9365;0,210055
514,9007;0,210791
515,8649;0,211647
516,8292;0,212573
517,7934;0,21348
518,7576;0,214256
519,7219;0,214815
520,6861;0,215122
521,6503;0,215204
522,6146;0,215126
523,5788;0,214983
524,5430;0,214875
525,5073;0,214882
526,4715;0,215023
527,4357;0,215239
528,4000;0,215426
529,3642;0,215493
530,3284;0,215398
531,2927;0,215158
532,2569;0,214839
533,2211;0,214519
534,1854;0,214255
535,1496;0,214064
536,1138;0,213918
537,0781;0,213775
538,0423;0,213603
539,0065;0,213405
539,9708;0,213222
540,9350;0,213107
541,8992;0,213108
542,8635;0,21324
543,8277;0,213482
544,7919;0,21379
545,7562;0,214112
546,7204;0,214413
547,6846;0,214679
548,6489;0,214923
549,6131;0,215171
550,5773;0,215464
551,5416;0,215843
552,5058;0,216345
553,4700;0,216981
554,4343;0,217708
555,3985;0,218427
556,3627;0,21899
557,3270;0,219249
558,2912;0,219101
559,2554;0,218528
560,2197;0,217593
561,1839;0,216418
562,1481;0,215144
563,1124;0,213899
564,0766;0,212768
565,0408;0,211787
566,0051;0,210956
566,9693;0,210254
567,9335;0,209657
568,8978;0,209154
569,8620;0,20874
570,8262;0,208415
571,7905;0,208168
572,7547;0,207986
573,7189;0,207854
574,6832;0,207762
575,6474;0,207705
576,6116;0,207675
577,5759;0,207658
578,5401;0,20763
579,5043;0,207571
580,4686;0,207472
581,4328;0,207343
582,3970;0,207203
583,3613;0,207073
584,3255;0,206964
585,2897;0,20688
586,2540;0,206821
587,2182;0,206791
588,1824;0,206797
589,1467;0,206841
590,1109;0,206903
591,0751;0,206939
592,0394;0,206889
593,0036;0,206704
593,9678;0,206367
594,9321;0,205898
595,8963;0,205339
596,8605;0,20473
597,8248;0,204099
598,7890;0,203463
599,7532;0,202835
600,7175;0,202229
601,6817;0,201666
602,6459;0,201158
603,6102;0,200707
604,5744;0,200298
605,5386;0,199908
606,5029;0,199508
607,4671;0,199064
608,4313;0,198542
609,3956;0,19792
610,3598;0,197207
611,3240;0,196459
612,2883;0,195765
613,2525;0,195208
614,2167;0,194806
615,1810;0,194473
616,1452;0,19403
617,1094;0,193281
618,0737;0,192116
619,0379;0,190581
620,0021;0,188847
620,9664;0,187118
621,9306;0,185544
622,8948;0,184193
623,8591;0,183061
624,8233;0,182068
625,7875;0,181227
626,7518;0,180487
627,7160;0,179802
628,6802;0,179131
629,6445;0,178453
630,6087;0,177772
631,5729;0,177116
632,5372;0,176522
633,5014;0,176011
634,4656;0,175575
635,4299;0,175185
636,3941;0,174806
637,3583;0,174422
638,3226;0,174034
639,2868;0,173654
640,2510;0,173285
641,2153;0,172915
642,1795;0,172531
643,1437;0,172132
644,1080;0,171739
645,0722;0,171389
646,0364;0,171116
647,0007;0,170924
647,9649;0,170786
648,9291;0,170655
649,8934;0,170492
650,8576;0,170287
651,8218;0,170068
652,7861;0,16988
653,7503;0,169763
654,7145;0,169736
655,6788;0,169788
656,6430;0,169883
657,6072;0,169978
658,5715;0,170041
659,5357;0,170041
660,4999;0,169938
661,4642;0,169672
662,4284;0,169165
663,3926;0,168343
664,3569;0,167191
665,3211;0,165865
666,2853;0,164742
667,2496;0,164193
668,2138;0,164059
669,1780;0,163744
670,1423;0,163093
671,1065;0,162263
672,0707;0,161214
673,0350;0,159833
673,9992;0,158149
674,9634;0,156325
675,9277;0,15454
676,8919;0,152878
677,8561;0,151305
678,8204;0,14975
679,7846;0,148198
680,7488;0,146704
681,7131;0,145353
682,6773;0,144192
683,6415;0,143202
684,6058;0,142324
685,5700;0,141498
686,5342;0,140691
687,4985;0,139897
688,4627;0,139135
689,4269;0,138418
690,3912;0,137765
691,3554;0,137185
692,3196;0,136674
693,2839;0,136208
694,2481;0,135752
695,2123;0,135275
696,1766;0,134761
697,1408;0,134213
698,1050;0,133645
699,0693;0,133068
700,0335;0,132486
700,9977;0,131898
701,9620;0,131302
702,9262;0,130698
703,8904;0,130078
704,8547;0,129448
705,8189;0,128816
706,7831;0,128191
707,7474;0,127581
708,7116;0,126989
709,6758;0,126403
710,6401;0,125798
711,6043;0,12514
712,5685;0,124409
713,5328;0,123618
714,4970;0,122823
715,4612;0,121391
716,4255;0,120931
717,3897;0,12063
718,3539;0,120357
719,3182;0,119917
720,2824;0,119153
721,2466;0,118034
722,2109;0,116675
723,1751;0,115269
724,1393;0,113979
725,1036;0,112883
726,0678;0,111962
727,0320;0,111148
727,9963;0,110367
728,9605;0,109574
729,9247;0,108766
730,8890;0,107962
731,8532;0,107188
732,8174;0,106459
733,7817;0,105776
734,7459;0,105131
735,7101;0,104514
736,6744;0,103921
737,6386;0,103357
738,6028;0,102828
739,5671;0,102333
740,5313;0,101856
741,4955;0,10137
742,4598;0,100851
743,4240;0,100286
744,3882;0,0996834
745,3525;0,0990613
746,3167;0,0984383
747,2809;0,097823
748,2452;0,0972134
749,2094;0,096602
750,1736;0,0959842
751,1379;0,0953621
752,1021;0,0947449
753,0663;0,0941446
754,0306;0,0935715
754,9948;0,0930291
755,9590;0,0925121
756,9233;0,0920069
757,8875;0,0914976
758,8517;0,0909742
759,8160;0,0904389
760,7802;0,0899066
761,7444;0,0893975
762,7087;0,0889273
763,6729;0,0885009
764,6371;0,0881125
765,6014;0,0877522
766,5656;0,0874109
767,5298;0,0870808
768,4941;0,0867524
769,4583;0,0864119
770,4225;0,0860448
771,3868;0,0856431
772,3510;0,0852121
773,3152;0,08477
774,2795;0,0843403
775,2437;0,0839417
776,2079;0,083581
777,1722;0,0832532
778,1364;0,0829449
779,1006;0,0826388
780,0649;0,0823161
781,0291;0,0819597
781,9933;0,0815582
782,9576;0,081112
783,9218;0,0806363
784,8860;0,0801584
785,8503;0,0797087
786,8145;0,0793096
787,7787;0,0789692
788,7430;0,0786806
789,7072;0,0784289
790,6714;0,0781983
791,6357;0,0779775
792,5999;0,0777618
793,5641;0,0775512
794,5284;0,0773485
795,4926;0,0771559
796,4568;0,0769736
797,4211;0,0767988
798,3853;0,0766265
799,3495;0,0764524
800,3138;0,076276
801,2780;0,0761028
802,2422;0,0759416
803,2065;0,0757987
804,1707;0,0756715
805,1349;0,0755463
806,0992;0,0754036
807,0634;0,0752284
808,0276;0,0750201
808,9919;0,0747943
809,9561;0,0745756
810,9203;0,0743835
811,8846;0,074222
812,8488;0,074079
813,8130;0,0739342
814,7773;0,0737724
815,7415;0,0735907
816,7057;0,0733989
817,6700;0,0732123
818,6342;0,0730434
819,5984;0,0728979
820,5627;0,0727748
821,5269;0,0726702
822,4911;0,0725811
823,4554;0,0725083
824,4196;0,0724555
825,3839;0,0724262
826,3481;0,0724186
827,3123;0,0724213
828,2766;0,0724133
829,2408;0,0723703
830,2050;0,0722759
831,1693;0,0721291
832,1335;0,0719448
833,0977;0,071744
834,0620;0,0715408
835,0262;0,0713337
835,9904;0,0711079
836,9547;0,0708465
837,9189;0,070543
838,8831;0,0702076
839,8474;0,0698631
840,8116;0,0695349
841,7758;0,069241
842,7401;0,0689882
843,7043;0,0687745
844,6685;0,068595
845,6328;0,0684454
846,5970;0,0683224
847,5612;0,0682227
848,5255;0,0681412
849,4897;0,0680721
850,4539;0,0680109
851,4182;0,0679558
852,3824;0,0679069
853,3466;0,0678627
854,3109;0,067818
855,2751;0,0677639
856,2393;0,0676924
857,2036;0,0676021
858,1678;0,0675016
859,1320;0,0674073
860,0963;0,067337
861,0605;0,0673028
862,0247;0,0673075
862,9890;0,0673466
863,9532;0,0674133
864,9174;0,067503
865,8817;0,0676143
866,8459;0,0677479
867,8101;0,0679038
868,7744;0,0680809
869,7386;0,0682761
870,7028;0,0684822
871,6671;0,0686857
872,6313;0,0688661
873,5955;0,0690003
874,5598;0,069072
875,5240;0,0690804
876,4882;0,0690434
877,4525;0,0689919
878,4167;0,0689591
879,3809;0,0689718
880,3452;0,069049
881,3094;0,0692056
882,2736;0,0694575
883,2379;0,0698213
884,2021;0,0703098
885,1663;0,0709265
886,1306;0,0716648
887,0948;0,0725102
888,0590;0,0734445
889,0233;0,0744477
889,9875;0,0754957
890,9517;0,0765598
891,9160;0,0776075
892,8802;0,078606
893,8444;0,079525
894,8087;0,0803349
895,7729;0,0810023
896,7371;0,0814892
897,7014;0,0817577
898,6656;0,0817828
899,6298;0,0815638
900,5941;0,0811293
901,5583;0,0805305
902,5225;0,0798265
903,4868;0,0790711
904,4510;0,0783065
905,4152;0,0775656
906,3795;0,0768793
907,3437;0,0762797
908,3079;0,0757974
909,2722;0,0754536
910,2364;0,075253
911,2007;0,075182
912,1649;0,0752158
913,1292;0,0753287
914,0934;0,0755038
915,0576;0,0757343
916,0219;0,0760196
916,9861;0,0763569
917,9503;0,0767366
918,9146;0,077143
919,8788;0,0775596
920,8430;0,0779735
921,8073;0,0783764
922,7715;0,0787607
923,7357;0,0791149
924,7000;0,0794237
925,6642;0,0796727
926,6284;0,0798565
927,5927;0,0799836
928,5569;0,0800745
929,5211;0,0801539
930,4854;0,0802417
931,4496;0,0803478
932,4138;0,0804751
933,3781;0,0806249
934,3423;0,0808029
935,3065;0,0810199
936,2708;0,0812864
937,2350;0,0816076
938,1992;0,0819805
939,1635;0,0823976
940,1277;0,0828545
941,0919;0,0833563
942,0562;0,0839192
943,0204;0,0845651
943,9846;0,0853125
944,9489;0,0861693
945,9131;0,0871294
946,8773;0,088177
947,8416;0,0892936
948,8058;0,0904666
949,7700;0,0916946
950,7343;0,0929883
951,6985;0,0943663
952,6627;0,0958491
953,6270;0,0974514
954,5912;0,0991773
955,5554;0,10102
956,5197;0,102963
957,4839;0,10499
958,4481;0,107086
959,4124;0,109241
960,3766;0,111453
961,3408;0,113721
962,3051;0,116045
963,2693;0,118417
964,2335;0,12083
965,1978;0,123278
966,1620;0,125763
967,1262;0,1283
968,0905;0,130916
969,0547;0,133649
970,0189;0,136542
970,9832;0,139635
971,9474;0,142961
972,9116;0,146551
973,8759;0,150429
974,8401;0,154614
975,8043;0,159119
976,7686;0,163944
977,7328;0,169071
978,6970;0,17445
979,6613;0,179991
980,6255;0,18556
981,5897;0,190987
982,5540;0,196092
983,5182;0,200714
984,4824;0,204749
985,4467;0,208171
986,4109;0,211022
987,3751;0,21339
988,3394;0,215375
989,3036;0,217062
990,2678;0,218509
991,2321;0,219751
992,1963;0,220818
993,1605;0,221743
994,1248;0,222568
995,0890;0,223345
996,0532;0,224125
997,0175;0,224944
997,9817;0,225818
998,9459;0,226735
999,9102;0,227669
1000,8744;0,228594
1001,8386;0,2295
1002,8029;0,230409
1003,7671;0,231375
1004,7313;0,232477
1005,6956;0,233799
1006,6598;0,235416
1007,6240;0,237377
1008,5883;0,2397
1009,5525;0,242368
1010,5167;0,245335
1011,4810;0,248534
1012,4452;0,251881
1013,4094;0,25529
1014,3737;0,258677
1015,3379;0,261971
1016,3021;0,26512
1017,2664;0,268098
1018,2306;0,270903
1019,1948;0,273548
1020,1591;0,276058
1021,1233;0,278454
1022,0875;0,280755
1023,0518;0,282972
1024,0160;0,285112
1024,9802;0,287171
1025,9445;0,289134
1026,9087;0,290962
1027,8729;0,292595
1028,8372;0,293954
1029,8014;0,294943
1030,7656;0,295462
1031,7299;0,295417
1032,6941;0,294742
1033,6583;0,29341
1034,6226;0,291456
1035,5868;0,288988
1036,5510;0,286179
1037,5153;0,283246
1038,4795;0,280417
1039,4437;0,277889
1040,4080;0,275801
1041,3722;0,27421
1042,3364;0,273093
1043,3007;0,272358
1044,2649;0,271869
1045,2291;0,271476
1046,1934;0,271044
1047,1576;0,270469
1048,1218;0,269685
1049,0861;0,268655
1050,0503;0,267356
1051,0145;0,26577
1051,9788;0,263885
1052,9430;0,261696
1053,9072;0,259211
1054,8715;0,256447
1055,8357;0,253411
1056,7999;0,25009
1057,7642;0,246445
1058,7284;0,242427
1059,6926;0,238014
1060,6569;0,23324
1061,6211;0,228207
1062,5853;0,223074
1063,5496;0,218018
1064,5138;0,213196
1065,4780;0,208717
1066,4423;0,204631
1067,4065;0,200938
1068,3707;0,197604
1069,3350;0,194577
1070,2992;0,191791
1071,2634;0,18918
1072,2277;0,186676
1073,1919;0,184215
1074,1561;0,18174
1075,1204;0,17921
1076,0846;0,176608
1077,0488;0,173943
1078,0131;0,171258
1078,9773;0,168614
1079,9415;0,166083
1080,9058;0,163731
1081,8700;0,161602
1082,8342;0,159715
1083,7985;0,15807
1084,7627;0,15665
1085,7269;0,155432
1086,6912;0,154388
1087,6554;0,153498
1088,6196;0,152752
1089,5839;0,152149
1090,5481;0,1517
1091,5123;0,151418
1092,4766;0,151309
1093,4408;0,151368
1094,4050;0,151577
1095,3693;0,151915
1096,3335;0,152359
1097,2977;0,152892
1098,2620;0,153495
1099,2262;0,154143
1100,1904;0,1548
1101,1547;0,155417
1102,1189;0,155942
1103,0831;0,15633
1104,0474;0,156548
1105,0116;0,156583
1105,9758;0,156438
1106,9401;0,156121
1107,9043;0,155637
1108,8685;0,154978
1109,8328;0,154117
1110,7970;0,153017
1111,7612;0,151651
1112,7255;0,150021
1113,6897;0,148176
1114,6539;0,146212
1115,6182;0,144248
1116,5824;0,1424
1117,5466;0,140738
1118,5109;0,139276
1119,4751;0,137966
1120,4393;0,136718
1121,4036;0,135421
1122,3678;0,133968
1123,3320;0,132277
1124,2963;0,130303
1125,2605;0,128044
1126,2247;0,125536
1127,1890;0,122844
1128,1532;0,120045
1129,1174;0,117211
1130,0817;0,114395
1131,0459;0,111635
1132,0101;0,108955
1132,9744;0,106381
1133,9386;0,103949
1134,9028;0,101704
1135,8671;0,0996924
1136,8313;0,0979558
1137,7955;0,0965164
1138,7598;0,0953766
1139,7240;0,09452
1140,6882;0,0939171
1141,6525;0,0935311
1142,6167;0,0933235
1143,5809;0,0932586
1144,5452;0,0933082
1145,5094;0,0934555
1146,4736;0,093696
1147,4379;0,0940351
1148,4021;0,0944809
1149,3663;0,0950366
1150,3306;0,0956937
1151,2948;0,0964303
1152,2590;0,0972127
1153,2233;0,0979999
1154,1875;0,0987464
1155,1517;0,099403
1156,1160;0,0999141
1157,0802;0,100215
1158,0444;0,100227
1159,0087;0,0998646
1159,9729;0,0990396
1160,9371;0,0976779
1161,9014;0,0957374
1162,8656;0,093223
1163,8298;0,0901934
1164,7941;0,0867564
1165,7583;0,0830538
1166,7225;0,0792415
1167,6868;0,0754678
1168,6510;0,0718566
1169,6152;0,0684969
1170,5795;0,065439
1171,5437;0,0627
1172,5079;0,0602731
1173,4722;0,0581402
1174,4364;0,0562805
1175,4006;0,0546752
1176,3649;0,0533066
1177,3291;0,0521556
1178,2933;0,0511996
1179,2576;0,0504131
1180,2218;0,0497707
1181,1860;0,0492502
1182,1503;0,0488349
1183,1145;0,0485141
1184,0787;0,0482823
1185,0430;0,0481373
1186,0072;0,0480789
1186,9714;0,0481074
1187,9357;0,048224
1188,8999;0,0484307
1189,8641;0,0487317
1190,8284;0,0491327
1191,7926;0,0496395
1192,7568;0,0502558
1193,7211;0,0509796
1194,6853;0,0518014
1195,6495;0,0527041
1196,6138;0,0536654
1197,5780;0,0546624
1198,5422;0,0556755
1199,5065;0,0565352
1200,4707;0,057566
1201,4349;0,0585921
1202,3992;0,0596111
1203,3634;0,0606184
1204,3276;0,0616057
1205,2919;0,062563
1206,2561;0,0634833
1207,2203;0,0643688
1208,1846;0,0652351
1209,1488;0,0661104
1210,1130;0,0670298
1211,0773;0,0680252
1212,0415;0,0691148
1213,0057;0,0702981
1213,9700;0,0715572
1214,9342;0,0728643
1215,8984;0,074191
1216,8627;0,0755122
1217,8269;0,0768085
1218,7911;0,0780663
1219,7554;0,0792761
1220,7196;0,0804313
1221,6838;0,0815275
1222,6481;0,0825619
1223,6123;0,0835328
1224,5765;0,0844389
1225,5408;0,0852812
1226,5050;0,0860632
1227,4692;0,0867905
1228,4335;0,0874682
1229,3977;0,0880966
1230,3619;0,0886702
1231,3262;0,0891793
1232,2904;0,089615
1233,2546;0,0899748
1234,2189;0,0902647
1235,1831;0,0904985
1236,1473;0,090693
1237,1116;0,0908631
1238,0758;0,0910176
1239,0400;0,0911581
1240,0043;0,0912791
1240,9685;0,0913696
1241,9327;0,0914161
1242,8970;0,091405
1243,8612;0,0913253
1244,8254;0,0911696
1245,7897;0,090936
1246,7539;0,0906285
1247,7181;0,090257
1248,6824;0,0898364
1249,6466;0,0893838
1250,6108;0,0889154
1251,5751;0,0884438
1252,5393;0,0879771
1253,5035;0,0875197
1254,4678;0,0870719
1255,4320;0,0866287
1256,3962;0,0861789
1257,3605;0,0857057
1258,3247;0,0851908
1259,2889;0,0846212
1260,2532;0,0839943
1261,2174;0,0833171
1262,1816;0,0826002
1263,1459;0,0818499
1264,1101;0,0810638
1265,0743;0,0802326
1266,0386;0,0793455
1267,0028;0,0783955
1267,9670;0,0773809
1268,9313;0,0763054
1269,8955;0,0751758
1270,8597;0,0740017
1271,8240;0,0727959
1272,7882;0,0715746
1273,7524;0,0703572
1274,7167;0,0691646
1275,6809;0,0680159
1276,6451;0,0669244
1277,6094;0,0658935
1278,5736;0,0649148
1279,5378;0,063972
1280,5021;0,0630487
1281,4663;0,062137
1282,4305;0,0612421
1283,3948;0,0603791
1284,3590;0,0595657
1285,3232;0,0588156
1286,2875;0,0581355
1287,2517;0,0575276
1288,2159;0,0569929
1289,1802;0,0565333
1290,1444;0,0561514
1291,1086;0,0558489
1292,0729;0,0556268
1293,0371;0,0554872
1294,0013;0,0554344
1294,9656;0,0554743
1295,9298;0,0556118
1296,8940;0,055849
1297,8583;0,0561841
1298,8225;0,0566134
1299,7867;0,0571323
1300,7510;0,0577355
1301,7152;0,0584181
1302,6794;0,0591728
1303,6437;0,0599909
1304,6079;0,060865
1305,5721;0,0617881
1306,5364;0,0627529
1307,5006;0,0637506
1308,4648;0,0647711
1309,4291;0,0658023
1310,3933;0,0668293
1311,3575;0,0678328
1312,3218;0,0687879
1313,2860;0,069665
1314,2502;0,0704327
1315,2145;0,0710591
1316,1787;0,0715128
1317,1429;0,0717671
1318,1072;0,0718113
1319,0714;0,0716628
1320,0356;0,071371
1320,9999;0,071003
1321,9641;0,0706199
1322,9283;0,0702606
1323,8926;0,06994
1324,8568;0,0696586
1325,8210;0,0694122
1326,7853;0,069197
1327,7495;0,0690088
1328,7137;0,0688389
1329,6780;0,0686728
1330,6422;0,0684925
1331,6064;0,0682835
1332,5707;0,0680378
1333,5349;0,067754
1334,4991;0,0674291
1335,4634;0,0670482
1336,4276;0,0665794
1337,3918;0,0659808
1338,3561;0,0652265
1339,3203;0,0643442
1340,2845;0,0634248
1341,2488;0,0625775
1342,2130;0,0618696
1343,1772;0,0613098
1344,1415;0,060874
1345,1057;0,0605366
1346,0699;0,0602864
1347,0342;0,0601269
1347,9984;0,0600712
1348,9626;0,0601329
1349,9269;0,060317
1350,8911;0,0606152
1351,8553;0,061007
1352,8196;0,0614685
1353,7838;0,0619829
1354,7480;0,0625457
1355,7123;0,0631614
1356,6765;0,0638325
1357,6407;0,0645522
1358,6050;0,0653049
1359,5692;0,0660711
1360,5334;0,0668234
