TITLE;
DATA TYPE;INFRARED SPECTRUM
ORIGIN;JASCO
OWNER;
DATE;25/02/04
TIME;14:26:35
SPECTROMETER/DATA SYSTEM;
LOCALE;9226
RESOLUTION;
DELTAX;0,964233
XUNITS;1/CM
YUNITS;ABSORBANCE
FIRSTX;  399,1927
LASTX; 4000,6047
NPOINTS;    3736
FIRSTY;     0,13250
MAXY;     0,18376
MINY;     0,01102
XYDATA
399,1927;0,132504
400,1569;0,132231
401,1211;0,132378
402,0854;0,132816
403,0496;0,133347
404,0138;0,133811
404,9781;0,134096
405,9423;0,134116
406,9065;0,133798
407,8708;0,133107
408,8350;0,132096
409,7992;0,130964
410,7635;0,130041
411,7277;0,129662
412,6919;0,129984
413,6562;0,130918
414,6204;0,132207
415,5846;0,133557
416,5489;0,134687
417,5131;0,135346
418,4773;0,1354
419,4416;0,13501
420,4058;0,134571
421,3700;0,134383
422,3343;0,134511
423,2985;0,13488
424,2627;0,13537
425,2270;0,135856
426,1912;0,136235
427,1554;0,136458
428,1197;0,136543
429,0839;0,13656
430,0481;0,136598
431,0124;0,136735
431,9766;0,137027
432,9408;0,137491
433,9051;0,138092
434,8693;0,138735
435,8335;0,139279
436,7978;0,139585
437,7620;0,13959
438,7262;0,139351
439,6905;0,139015
440,6547;0,138752
441,6189;0,138664
442,5832;0,138719
443,5474;0,138758
444,5116;0,138598
445,4759;0,138178
446,4401;0,137593
447,4043;0,137034
448,3686;0,136661
449,3328;0,136527
450,2970;0,136566
451,2613;0,136656
452,2255;0,136704
453,1897;0,136701
454,1540;0,136709
455,1182;0,136812
456,0824;0,137055
457,0467;0,137404
458,0109;0,137752
458,9751;0,137967
459,9394;0,137966
460,9036;0,137745
461,8678;0,137356
462,8321;0,136886
463,7963;0,136442
464,7605;0,13613
465,7248;0,136015
466,6890;0,136079
467,6532;0,136226
468,6175;0,136334
469,5817;0,136329
470,5459;0,136224
471,5102;0,136121
472,4744;0,136142
473,4386;0,136336
474,4029;0,136637
475,3671;0,136909
476,3313;0,13703
477,2956;0,136956
478,2598;0,136726
479,2240;0,136439
480,1883;0,136203
481,1525;0,136094
482,1167;0,136129
483,0810;0,13628
484,0452;0,136505
485,0094;0,136777
485,9737;0,137097
486,9379;0,13747
487,9021;0,137891
488,8664;0,138324
489,8306;0,13871
490,7948;0,138986
491,7591;0,13911
492,7233;0,139086
493,6875;0,138959
494,6518;0,1388
495,6160;0,138675
496,5802;0,138624
497,5445;0,138658
498,5087;0,138755
499,4729;0,138877
500,4372;0,138982
501,4014;0,13904
502,3656;0,13905
503,3299;0,139043
504,2941;0,139058
505,2583;0,139128
506,2226;0,139267
507,1868;0,139466
508,1510;0,139709
509,1153;0,139976
510,0795;0,140257
511,0437;0,140555
512,0080;0,14088
512,9722;0,141239
513,9365;0,141625
514,9007;0,142012
515,8649;0,142361
516,8292;0,142632
517,7934;0,142807
518,7576;0,142902
519,7219;0,142955
520,6861;0,142999
521,6503;0,143043
522,6146;0,143073
523,5788;0,143068
524,5430;0,143024
525,5073;0,142959
526,4715;0,14291
527,4357;0,142899
528,4000;0,142917
529,3642;0,142925
530,3284;0,142877
531,2927;0,142748
532,2569;0,14255
533,2211;0,142318
534,1854;0,142099
535,1496;0,14192
536,1138;0,141783
537,0781;0,141672
538,0423;0,141574
539,0065;0,141489
539,9708;0,141429
540,9350;0,141408
541,8992;0,141429
542,8635;0,141481
543,8277;0,141552
544,7919;0,141633
545,7562;0,141733
546,7204;0,141869
547,6846;0,142061
548,6489;0,142317
549,6131;0,142627
550,5773;0,142962
551,5416;0,143281
552,5058;0,143554
553,4700;0,143766
554,4343;0,143928
555,3985;0,144061
556,3627;0,144176
557,3270;0,144258
558,2912;0,144252
559,2554;0,144088
560,2197;0,143704
561,1839;0,143084
562,1481;0,142265
563,1124;0,141333
564,0766;0,140387
565,0408;0,139512
566,0051;0,138758
566,9693;0,138133
567,9335;0,137614
568,8978;0,137168
569,8620;0,136769
570,8262;0,136411
571,7905;0,136107
572,7547;0,135875
573,7189;0,135722
574,6832;0,135637
575,6474;0,135586
576,6116;0,135529
577,5759;0,135438
578,5401;0,135309
579,5043;0,135155
580,4686;0,134998
581,4328;0,134854
582,3970;0,134733
583,3613;0,134638
584,3255;0,134568
585,2897;0,134514
586,2540;0,134461
587,2182;0,134397
588,1824;0,13432
589,1467;0,134245
590,1109;0,1342
591,0751;0,134201
592,0394;0,134236
593,0036;0,134263
593,9678;0,134228
594,9321;0,134098
595,8963;0,133879
596,8605;0,133603
597,8248;0,133303
598,7890;0,132997
599,7532;0,132681
600,7175;0,132343
601,6817;0,131985
602,6459;0,131628
603,6102;0,1313
604,5744;0,13102
605,5386;0,130777
606,5029;0,13054
607,4671;0,130266
608,4313;0,129926
609,3956;0,129514
610,3598;0,129052
611,3240;0,128581
612,2883;0,128146
613,2525;0,127777
614,2167;0,127474
615,1810;0,127198
616,1452;0,126877
617,1094;0,126435
618,0737;0,125829
619,0379;0,125078
620,0021;0,124249
620,9664;0,123423
621,9306;0,122654
622,8948;0,121953
623,8591;0,121299
624,8233;0,120641
625,7875;0,120004
626,7518;0,119394
627,7160;0,118835
628,6802;0,118343
629,6445;0,117916
630,6087;0,117538
631,5729;0,117183
632,5372;0,116833
633,5014;0,116476
634,4656;0,116113
635,4299;0,115747
636,3941;0,115379
637,3583;0,11501
638,3226;0,114645
639,2868;0,11429
640,2510;0,113955
641,2153;0,113645
642,1795;0,113359
643,1437;0,113091
644,1080;0,112831
645,0722;0,112574
646,0364;0,112319
647,0007;0,112071
647,9649;0,111842
648,9291;0,111643
649,8934;0,111487
650,8576;0,111384
651,8218;0,111342
652,7861;0,111369
653,7503;0,111464
654,7145;0,111611
655,6788;0,111777
656,6430;0,111919
657,6072;0,112006
658,5715;0,112034
659,5357;0,112018
660,4999;0,11197
661,4642;0,111864
662,4284;0,111621
663,3926;0,111135
664,3569;0,110328
665,3211;0,109226
666,2853;0,108019
667,2496;0,107013
668,2138;0,106415
669,1780;0,106178
670,1423;0,106159
671,1065;0,106159
672,0707;0,105943
673,0350;0,105367
673,9992;0,104439
674,9634;0,103281
675,9277;0,102058
676,8919;0,100897
677,8561;0,0998527
678,8204;0,0989212
679,7846;0,0980884
680,7488;0,0973486
681,7131;0,0966999
682,6773;0,0961256
683,6415;0,0955987
684,6058;0,0950973
685,5700;0,0946173
686,5342;0,0941688
687,4985;0,0937625
688,4627;0,0934039
689,4269;0,0930836
690,3912;0,0927903
691,3554;0,0925145
692,3196;0,0922461
693,2839;0,0919741
694,2481;0,0916904
695,2123;0,0913957
696,1766;0,0911008
697,1408;0,0908196
698,1050;0,0905596
699,0693;0,0903174
700,0335;0,0900821
700,9977;0,0898427
701,9620;0,0895919
702,9262;0,0893255
703,8904;0,0890308
704,8547;0,0887027
705,8189;0,0883374
706,7831;0,0879383
707,7474;0,0875168
708,7116;0,0870875
709,6758;0,0866615
710,6401;0,0862416
711,6043;0,0858226
712,5685;0,0853969
713,5328;0,0849606
714,4970;0,0845167
715,4612;0,0836579
716,4255;0,083306
717,3897;0,0829869
718,3539;0,0826591
719,3182;0,0822644
720,2824;0,0817562
721,2466;0,0811274
722,2109;0,080414
723,1751;0,0796734
724,1393;0,0789557
725,1036;0,0782882
726,0678;0,0776763
727,0320;0,077113
727,9963;0,0765863
728,9605;0,0760836
729,9247;0,0755926
730,8890;0,0751043
731,8532;0,0746169
732,8174;0,0741393
733,7817;0,0736877
734,7459;0,0732768
735,7101;0,072911
736,6744;0,0725814
737,6386;0,0722714
738,6028;0,0719666
739,5671;0,0716628
740,5313;0,0713645
741,4955;0,0710768
742,4598;0,0707974
743,4240;0,0705137
744,3882;0,0702087
745,3525;0,0698704
746,3167;0,0694978
747,2809;0,0691006
748,2452;0,0686937
749,2094;0,0682912
750,1736;0,0679044
751,1379;0,0675412
752,1021;0,0672066
753,0663;0,0669006
754,0306;0,0666151
754,9948;0,0663343
755,9590;0,0660411
756,9233;0,0657247
757,8875;0,0653863
758,8517;0,0650382
759,8160;0,0646965
760,7802;0,0643726
761,7444;0,0640701
762,7087;0,0637863
763,6729;0,0635183
764,6371;0,063267
765,6014;0,0630375
766,5656;0,0628364
767,5298;0,0626664
768,4941;0,0625235
769,4583;0,0623964
770,4225;0,0622695
771,3868;0,0621278
772,3510;0,0619618
773,3152;0,0617707
774,2795;0,0615612
775,2437;0,0613429
776,2079;0,0611234
777,1722;0,0609053
778,1364;0,0606873
779,1006;0,0604671
780,0649;0,0602446
781,0291;0,0600219
781,9933;0,0598014
782,9576;0,0595825
783,9218;0,0593611
784,8860;0,0591317
785,8503;0,0588917
786,8145;0,0586447
787,7787;0,058401
788,7430;0,0581753
789,7072;0,057982
790,6714;0,0578297
791,6357;0,0577184
792,5999;0,0576395
793,5641;0,0575781
794,5284;0,0575172
795,4926;0,0574411
796,4568;0,0573393
797,4211;0,0572092
798,3853;0,0570588
799,3495;0,0569054
800,3138;0,056771
801,2780;0,056673
802,2422;0,0566151
803,2065;0,0565834
804,1707;0,0565533
805,1349;0,0565017
806,0992;0,0564211
807,0634;0,0563236
808,0276;0,0562336
808,9919;0,0561724
809,9561;0,0561456
810,9203;0,0561401
811,8846;0,0561328
812,8488;0,0561049
813,8130;0,0560521
814,7773;0,0559857
815,7415;0,0559246
816,7057;0,055884
817,6700;0,0558675
818,6342;0,0558668
819,5984;0,0558677
820,5627;0,0558584
821,5269;0,0558361
822,4911;0,0558069
823,4554;0,0557819
824,4196;0,0557698
825,3839;0,0557719
826,3481;0,0557826
827,3123;0,0557929
828,2766;0,0557956
829,2408;0,055788
830,2050;0,0557698
831,1693;0,0557393
832,1335;0,0556909
833,0977;0,0556159
834,0620;0,0555069
835,0262;0,0553624
835,9904;0,0551887
836,9547;0,054999
837,9189;0,0548091
838,8831;0,0546334
839,8474;0,0544814
840,8116;0,0543579
841,7758;0,0542631
842,7401;0,0541957
843,7043;0,0541541
844,6685;0,054137
845,6328;0,0541415
846,5970;0,0541622
847,5612;0,0541905
848,5255;0,0542171
849,4897;0,054235
850,4539;0,054242
851,4182;0,0542392
852,3824;0,0542269
853,3466;0,054203
854,3109;0,0541628
855,2751;0,0541037
856,2393;0,0540288
857,2036;0,0539466
858,1678;0,0538669
859,1320;0,0537955
860,0963;0,0537318
861,0605;0,0536721
862,0247;0,0536149
862,9890;0,0535652
863,9532;0,053533
864,9174;0,0535285
865,8817;0,0535571
866,8459;0,0536171
867,8101;0,0537023
868,7744;0,0538063
869,7386;0,0539251
870,7028;0,0540566
871,6671;0,0541979
872,6313;0,054343
873,5955;0,0544831
874,5598;0,0546097
875,5240;0,0547195
876,4882;0,0548178
877,4525;0,0549173
878,4167;0,0550343
879,3809;0,0551829
880,3452;0,0553715
881,3094;0,0556036
882,2736;0,0558804
883,2379;0,0562042
884,2021;0,0565792
885,1663;0,0570087
886,1306;0,0574926
887,0948;0,0580272
888,0590;0,0586062
889,0233;0,0592228
889,9875;0,0598681
890,9517;0,0605281
891,9160;0,0611808
892,8802;0,0617981
893,8444;0,062351
894,8087;0,0628173
895,7729;0,0631834
896,7371;0,0634416
897,7014;0,0635845
898,6656;0,0636031
899,6298;0,0634909
900,5941;0,0632525
901,5583;0,0629088
902,5225;0,062496
903,4868;0,062056
904,4510;0,0616257
905,4152;0,0612306
906,3795;0,0608851
907,3437;0,0605982
908,3079;0,0603775
909,2722;0,0602298
910,2364;0,0601574
911,2007;0,060155
912,1649;0,0602096
913,1292;0,0603046
914,0934;0,0604259
915,0576;0,0605664
916,0219;0,0607276
916,9861;0,0609174
917,9503;0,0611452
918,9146;0,0614161
919,8788;0,0617251
920,8430;0,0620559
921,8073;0,0623832
922,7715;0,0626812
923,7357;0,0629324
924,7000;0,0631342
925,6642;0,0632985
926,6284;0,063444
927,5927;0,0635872
928,5569;0,0637351
929,5211;0,063885
930,4854;0,0640294
931,4496;0,0641632
932,4138;0,0642898
933,3781;0,0644214
934,3423;0,0645766
935,3065;0,0647736
936,2708;0,0650245
937,2350;0,0653313
938,1992;0,0656866
939,1635;0,066079
940,1277;0,0665009
941,0919;0,0669536
942,0562;0,0674475
943,0204;0,0679959
943,9846;0,0686081
944,9489;0,0692849
945,9131;0,0700201
946,8773;0,0708061
947,8416;0,0716392
948,8058;0,0725204
949,7700;0,0734541
950,7343;0,0744438
951,6985;0,0754914
952,6627;0,0765973
953,6270;0,0777608
954,5912;0,0789794
955,5554;0,0802477
956,5197;0,0815577
957,4839;0,0829016
958,4481;0,0842755
959,4124;0,0856802
960,3766;0,0871186
961,3408;0,0885907
962,3051;0,090089
963,2693;0,0916012
964,2335;0,0931149
965,1978;0,0946256
966,1620;0,0961403
967,1262;0,0976761
968,0905;0,0992554
969,0547;0,100901
970,0189;0,102634
970,9832;0,104471
971,9474;0,106429
972,9116;0,108524
973,8759;0,11077
974,8401;0,113181
975,8043;0,115762
976,7686;0,118512
977,7328;0,121412
978,6970;0,124425
979,6613;0,127485
980,6255;0,130506
981,5897;0,13339
982,5540;0,136045
983,5182;0,138405
984,4824;0,140442
985,4467;0,142166
986,4109;0,143614
987,3751;0,144837
988,3394;0,14588
989,3036;0,146779
990,2678;0,147558
991,2321;0,148236
992,1963;0,148827
993,1605;0,14935
994,1248;0,149826
995,0890;0,150277
996,0532;0,150722
997,0175;0,151176
997,9817;0,151646
998,9459;0,152133
999,9102;0,152636
1000,8744;0,153157
1001,8386;0,153707
1002,8029;0,154304
1003,7671;0,154968
1004,7313;0,155722
1005,6956;0,156585
1006,6598;0,157571
1007,6240;0,158687
1008,5883;0,15993
1009,5525;0,161284
1010,5167;0,162723
1011,4810;0,164212
1012,4452;0,165712
1013,4094;0,167196
1014,3737;0,168646
1015,3379;0,170058
1016,3021;0,171431
1017,2664;0,172763
1018,2306;0,174043
1019,1948;0,175256
1020,1591;0,176387
1021,1233;0,177428
1022,0875;0,178384
1023,0518;0,179269
1024,0160;0,1801
1024,9802;0,180886
1025,9445;0,181626
1026,9087;0,182307
1027,8729;0,182903
1028,8372;0,183376
1029,8014;0,183679
1030,7656;0,183758
1031,7299;0,183557
1032,6941;0,183036
1033,6583;0,182177
1034,6226;0,181007
1035,5868;0,179593
1036,5510;0,17804
1037,5153;0,176469
1038,4795;0,174994
1039,4437;0,173701
1040,4080;0,172639
1041,3722;0,171818
1042,3364;0,17122
1043,3007;0,170806
1044,2649;0,170527
1045,2291;0,170328
1046,1934;0,170152
1047,1576;0,169944
1048,1218;0,16966
1049,0861;0,169268
1050,0503;0,168752
1051,0145;0,1681
1051,9788;0,167308
1052,9430;0,166373
1053,9072;0,165299
1054,8715;0,164087
1055,8357;0,162737
1056,7999;0,161231
1057,7642;0,159534
1058,7284;0,157603
1059,6926;0,155407
1060,6569;0,15296
1061,6211;0,150324
1062,5853;0,147608
1063,5496;0,144934
1064,5138;0,142408
1065,4780;0,140088
1066,4423;0,137989
1067,4065;0,136089
1068,3707;0,134353
1069,3350;0,132745
1070,2992;0,131237
1071,2634;0,129802
1072,2277;0,128408
1073,1919;0,127023
1074,1561;0,125613
1075,1204;0,124158
1076,0846;0,122654
1077,0488;0,121118
1078,0131;0,119586
1078,9773;0,118101
1079,9415;0,116708
1080,9058;0,115443
1081,8700;0,114326
1082,8342;0,113361
1083,7985;0,112536
1084,7627;0,111826
1085,7269;0,111207
1086,6912;0,110663
1087,6554;0,110188
1088,6196;0,109792
1089,5839;0,109487
1090,5481;0,109282
1091,5123;0,109174
1092,4766;0,109152
1093,4408;0,109198
1094,4050;0,109299
1095,3693;0,109449
1096,3335;0,10965
1097,2977;0,109907
1098,2620;0,110218
1099,2262;0,110568
1100,1904;0,110929
1101,1547;0,111261
1102,1189;0,111524
1103,0831;0,111689
1104,0474;0,111744
1105,0116;0,111695
1105,9758;0,111563
1106,9401;0,111368
1107,9043;0,111124
1108,8685;0,110819
1109,8328;0,110424
1110,7970;0,109901
1111,7612;0,109214
1112,7255;0,108357
1113,6897;0,107355
1114,6539;0,106264
1115,6182;0,105155
1116,5824;0,104092
1117,5466;0,103114
1118,5109;0,102224
1119,4751;0,101394
1120,4393;0,100574
1121,4036;0,0997052
1122,3678;0,0987316
1123,3320;0,0976086
1124,2963;0,0963093
1125,2605;0,0948285
1126,2247;0,0931818
1127,1890;0,0914013
1128,1532;0,0895274
1129,1174;0,0876008
1130,0817;0,0856577
1131,0459;0,083729
1132,0101;0,0818441
1132,9744;0,0800336
1133,9386;0,0783306
1134,9028;0,0767685
1135,8671;0,0753773
1136,8313;0,0741794
1137,7955;0,0731882
1138,7598;0,0724064
1139,7240;0,0718268
1140,6882;0,0714321
1141,6525;0,0711981
1142,6167;0,0710966
1143,5809;0,0711007
1144,5452;0,0711894
1145,5094;0,0713505
1146,4736;0,0715797
1147,4379;0,0718778
1148,4021;0,0722456
1149,3663;0,0726791
1150,3306;0,073166
1151,2948;0,0736847
1152,2590;0,0742071
1153,2233;0,0747015
1154,1875;0,0751368
1155,1517;0,0754828
1156,1160;0,0757087
1157,0802;0,0757784
1158,0444;0,0756489
1159,0087;0,0752712
1159,9729;0,0745974
1160,9371;0,0735909
1161,9014;0,0722368
1162,8656;0,0705486
1163,8298;0,0685695
1164,7941;0,0663684
1165,7583;0,0640318
1166,7225;0,0616529
1167,6868;0,0593205
1168,6510;0,0571085
1169,6152;0,0550682
1170,5795;0,0532265
1171,5437;0,0515903
1172,5079;0,0501537
1173,4722;0,0489052
1174,4364;0,0478313
1175,4006;0,0469168
1176,3649;0,0461436
1177,3291;0,0454915
1178,2933;0,0449413
1179,2576;0,0444788
1180,2218;0,0440956
1181,1860;0,0437868
1182,1503;0,0435466
1183,1145;0,0433662
1184,0787;0,0432355
1185,0430;0,0431476
1186,0072;0,0431035
1186,9714;0,043112
1187,9357;0,0431847
1188,8999;0,0433308
1189,8641;0,0435516
1190,8284;0,0438416
1191,7926;0,0441918
1192,7568;0,0445945
1193,7211;0,045045
1194,6853;0,0455409
1195,6495;0,0460795
1196,6138;0,0466557
1197,5780;0,0472611
1198,5422;0,0478854
1199,5065;0,0484692
1200,4707;0,0491054
1201,4349;0,0497318
1202,3992;0,0503424
1203,3634;0,0509334
1204,3276;0,0515038
1205,2919;0,0520543
1206,2561;0,0525879
1207,2203;0,0531102
1208,1846;0,053631
1209,1488;0,0541646
1210,1130;0,0547292
1211,0773;0,0553419
1212,0415;0,0560143
1213,0057;0,0567474
1213,9700;0,0575312
1214,9342;0,0583477
1215,8984;0,0591767
1216,8627;0,0599999
1217,8269;0,0608044
1218,7911;0,0615831
1219,7554;0,0623334
1220,7196;0,0630539
1221,6838;0,0637421
1222,6481;0,0643925
1223,6123;0,0649974
1224,5765;0,0655489
1225,5408;0,0660429
1226,5050;0,0664809
1227,4692;0,0668702
1228,4335;0,0672199
1229,3977;0,0675365
1230,3619;0,0678203
1231,3262;0,0680657
1232,2904;0,0682644
1233,2546;0,0684108
1234,2189;0,0685051
1235,1831;0,0685549
1236,1473;0,0685723
1237,1116;0,068569
1238,0758;0,0685532
1239,0400;0,0685275
1240,0043;0,0684901
1240,9685;0,0684365
1241,9327;0,0683615
1242,8970;0,0682588
1243,8612;0,0681213
1244,8254;0,0679419
1245,7897;0,067717
1246,7539;0,0674492
1247,7181;0,0671486
1248,6824;0,0668291
1249,6466;0,0665044
1250,6108;0,0661831
1251,5751;0,0658691
1252,5393;0,0655647
1253,5035;0,0652737
1254,4678;0,0650004
1255,4320;0,0647461
1256,3962;0,0645038
1257,3605;0,0642577
1258,3247;0,0639884
1259,2889;0,0636811
1260,2532;0,0633318
1261,2174;0,0629476
1262,1816;0,06254
1263,1459;0,0621172
1264,1101;0,0616801
1265,0743;0,0612229
1266,0386;0,0607381
1267,0028;0,0602198
1267,9670;0,0596658
1268,9313;0,0590776
1269,8955;0,0584587
1270,8597;0,0578147
1271,8240;0,0571524
1272,7882;0,0564797
1273,7524;0,0558052
1274,7167;0,055138
1275,6809;0,0544874
1276,6451;0,0538617
1277,6094;0,0532658
1278,5736;0,0526988
1279,5378;0,0521538
1280,5021;0,0516209
1281,4663;0,051093
1282,4305;0,0505699
1283,3948;0,0500594
1284,3590;0,0495742
1285,3232;0,0491269
1286,2875;0,0487264
1287,2517;0,0483773
1288,2159;0,0480816
1289,1802;0,0478402
1290,1444;0,0476532
1291,1086;0,04752
1292,0729;0,0474388
1293,0371;0,0474077
1294,0013;0,0474272
1294,9656;0,0475008
1295,9298;0,0476338
1296,8940;0,0478309
1297,8583;0,0480927
1298,8225;0,0484147
1299,7867;0,0487883
1300,7510;0,049204
1301,7152;0,049655
1302,6794;0,0501385
1303,6437;0,0506549
1304,6079;0,0512051
1305,5721;0,0517871
1306,5364;0,0523942
1307,5006;0,0530167
1308,4648;0,0536451
1309,4291;0,0542721
1310,3933;0,0548917
1311,3575;0,0554953
1312,3218;0,0560677
1313,2860;0,0565878
1314,2502;0,0570315
1315,2145;0,0573772
1316,1787;0,0576087
1317,1429;0,057718
1318,1072;0,0577091
1319,0714;0,0576002
1320,0356;0,0574229
1320,9999;0,057213
1321,9641;0,0570004
1322,9283;0,0568021
1323,8926;0,0566229
1324,8568;0,0564606
1325,8210;0,0563114
1326,7853;0,0561723
1327,7495;0,0560416
1328,7137;0,0559165
1329,6780;0,055791
1330,6422;0,0556563
1331,6064;0,055503
1332,5707;0,0553243
1333,5349;0,0551167
1334,4991;0,0548772
1335,4634;0,0545986
1336,4276;0,0542676
1337,3918;0,053869
1338,3561;0,0533997
1339,3203;0,052883
1340,2845;0,0523675
1341,2488;0,0519026
1342,2130;0,0515135
1343,1772;0,0511987
1344,1415;0,0509448
1345,1057;0,050741
1346,0699;0,0505863
1347,0342;0,0504878
1347,9984;0,0504563
1348,9626;0,0504997
1349,9269;0,0506177
1350,8911;0,0508007
1351,8553;0,0510325
1352,8196;0,051297
1353,7838;0,0515841
1354,7480;0,0518928
