TITLE;
DATA TYPE;INFRARED SPECTRUM
ORIGIN;JASCO
OWNER;
DATE;25/02/04
TIME;12:18:28
SPECTROMETER/DATA SYSTEM;
LOCALE;9226
RESOLUTION;
DELTAX;0,964233
XUNITS;1/CM
YUNITS;ABSORBANCE
FIRSTX;  399,1927
LASTX; 4000,6047
NPOINTS;    3736
FIRSTY;     0,09230
MAXY;     0,14160
MINY;     0,00932
XYDATA
399,1927;0,092304
400,1569;0,0937828
401,1211;0,0956333
402,0854;0,097261
403,0496;0,0984225
404,0138;0,0991115
404,9781;0,0994497
405,9423;0,0996063
406,9065;0,0997297
407,8708;0,0999055
408,8350;0,100164
409,7992;0,100518
410,7635;0,100979
411,7277;0,10153
412,6919;0,102108
413,6562;0,102618
414,6204;0,102999
415,5846;0,103273
416,5489;0,103564
417,5131;0,104069
418,4773;0,104903
419,4416;0,105899
420,4058;0,106704
421,3700;0,107127
422,3343;0,107236
423,2985;0,107192
424,2627;0,107115
425,2270;0,107032
426,1912;0,106899
427,1554;0,106661
428,1197;0,106322
429,0839;0,105963
430,0481;0,105704
431,0124;0,105635
431,9766;0,105752
432,9408;0,105961
433,9051;0,106141
434,8693;0,106218
435,8335;0,106205
436,7978;0,106164
437,7620;0,106139
438,7262;0,106109
439,6905;0,106012
440,6547;0,105806
441,6189;0,105519
442,5832;0,105255
443,5474;0,105127
444,5116;0,105161
445,4759;0,10526
446,4401;0,105258
447,4043;0,105015
448,3686;0,104487
449,3328;0,103736
450,2970;0,102901
451,2613;0,102151
452,2255;0,101621
453,1897;0,101376
454,1540;0,101406
455,1182;0,101643
456,0824;0,101979
457,0467;0,102294
458,0109;0,102485
458,9751;0,102506
459,9394;0,102378
460,9036;0,102159
461,8678;0,101904
462,8321;0,101656
463,7963;0,101446
464,7605;0,101298
465,7248;0,101214
466,6890;0,101178
467,6532;0,101166
468,6175;0,10116
469,5817;0,101152
470,5459;0,101127
471,5102;0,101049
472,4744;0,100868
473,4386;0,10057
474,4029;0,100218
475,3671;0,0999379
476,3313;0,0998528
477,2956;0,100021
478,2598;0,100407
479,2240;0,100895
480,1883;0,101346
481,1525;0,101659
482,1167;0,101805
483,0810;0,101826
484,0452;0,10179
485,0094;0,101761
485,9737;0,101778
486,9379;0,101864
487,9021;0,102037
488,8664;0,102314
489,8306;0,102696
490,7948;0,103156
491,7591;0,103623
492,7233;0,104003
493,6875;0,104213
494,6518;0,104219
495,6160;0,104064
496,5802;0,10385
497,5445;0,103705
498,5087;0,103732
499,4729;0,103973
500,4372;0,10439
501,4014;0,104884
502,3656;0,105349
503,3299;0,105732
504,2941;0,106046
505,2583;0,106345
506,2226;0,106669
507,1868;0,107017
508,1510;0,107352
509,1153;0,107643
510,0795;0,107889
511,0437;0,108132
512,0080;0,108433
512,9722;0,108837
513,9365;0,10935
514,9007;0,109931
515,8649;0,110505
516,8292;0,110986
517,7934;0,111313
518,7576;0,111477
519,7219;0,111521
520,6861;0,111499
521,6503;0,111456
522,6146;0,111413
523,5788;0,111387
524,5430;0,111407
525,5073;0,111511
526,4715;0,111723
527,4357;0,112026
528,4000;0,112356
529,3642;0,112624
530,3284;0,112756
531,2927;0,112722
532,2569;0,11254
533,2211;0,112275
534,1854;0,112009
535,1496;0,111805
536,1138;0,11169
537,0781;0,111653
538,0423;0,11167
539,0065;0,11172
539,9708;0,111795
540,9350;0,111897
541,8992;0,112021
542,8635;0,112153
543,8277;0,112271
544,7919;0,112363
545,7562;0,112441
546,7204;0,112543
547,6846;0,112711
548,6489;0,112967
549,6131;0,113298
550,5773;0,113658
551,5416;0,113998
552,5058;0,114285
553,4700;0,114527
554,4343;0,114752
555,3985;0,114986
556,3627;0,115221
557,3270;0,115402
558,2912;0,115442
559,2554;0,115269
560,2197;0,114859
561,1839;0,11426
562,1481;0,113574
563,1124;0,112911
564,0766;0,112346
565,0408;0,1119
566,0051;0,111547
566,9693;0,111248
567,9335;0,110987
568,8978;0,110768
569,8620;0,110611
570,8262;0,110516
571,7905;0,110461
572,7547;0,110411
573,7189;0,110336
574,6832;0,110233
575,6474;0,11012
576,6116;0,11003
577,5759;0,109977
578,5401;0,109952
579,5043;0,109923
580,4686;0,109855
581,4328;0,109729
582,3970;0,109557
583,3613;0,109377
584,3255;0,109234
585,2897;0,10916
586,2540;0,109161
587,2182;0,10921
588,1824;0,109269
589,1467;0,109298
590,1109;0,109274
591,0751;0,109195
592,0394;0,109078
593,0036;0,108947
593,9678;0,108816
594,9321;0,108685
595,8963;0,108536
596,8605;0,108351
597,8248;0,108117
598,7890;0,107836
599,7532;0,107534
600,7175;0,107243
601,6817;0,106997
602,6459;0,106815
603,6102;0,106691
604,5744;0,106595
605,5386;0,106486
606,5029;0,106322
607,4671;0,106078
608,4313;0,105757
609,3956;0,105387
610,3598;0,105001
611,3240;0,104631
612,2883;0,104283
613,2525;0,103949
614,2167;0,103607
615,1810;0,103235
616,1452;0,102813
617,1094;0,102333
618,0737;0,101792
619,0379;0,101204
620,0021;0,100589
620,9664;0,0999763
621,9306;0,0993956
622,8948;0,0988672
623,8591;0,0983983
624,8233;0,0979937
625,7875;0,0976215
626,7518;0,097271
627,7160;0,0969367
628,6802;0,0966151
629,6445;0,0962965
630,6087;0,0959648
631,5729;0,0956029
632,5372;0,0952043
633,5014;0,0947802
634,4656;0,0943553
635,4299;0,0939558
636,3941;0,0935974
637,3583;0,0932809
638,3226;0,0929976
639,2868;0,0927362
640,2510;0,0924867
641,2153;0,0922375
642,1795;0,0919733
643,1437;0,0916783
644,1080;0,0913456
645,0722;0,0909883
646,0364;0,0906409
647,0007;0,0903487
647,9649;0,090148
648,9291;0,0900467
649,8934;0,0900186
650,8576;0,0900183
651,8218;0,0900063
652,7861;0,0899704
653,7503;0,0899312
654,7145;0,0899331
655,6788;0,0900261
656,6430;0,0902439
657,6072;0,0905841
658,5715;0,0909968
659,5357;0,0913869
660,4999;0,0916445
661,4642;0,0917056
662,4284;0,0916003
663,3926;0,0914358
664,3569;0,0913253
665,3211;0,0913092
666,2853;0,0913091
667,2496;0,0911491
668,2138;0,0906863
669,1780;0,0899307
670,1423;0,088975
671,1065;0,0879197
672,0707;0,0868526
673,0350;0,0858159
673,9992;0,0848072
674,9634;0,0838178
675,9277;0,0828629
676,8919;0,081975
677,8561;0,0811764
678,8204;0,0804688
679,7846;0,0798461
680,7488;0,079307
681,7131;0,0788503
682,6773;0,0784644
683,6415;0,0781236
684,6058;0,0778008
685,5700;0,0774823
686,5342;0,077174
687,4985;0,0768951
688,4627;0,0766624
689,4269;0,076483
690,3912;0,0763472
691,3554;0,0762339
692,3196;0,0761197
693,2839;0,0759879
694,2481;0,0758328
695,2123;0,0756587
696,1766;0,0754743
697,1408;0,0752865
698,1050;0,0750966
699,0693;0,0748996
700,0335;0,0746873
700,9977;0,0744521
701,9620;0,0741903
702,9262;0,073904
703,8904;0,0736046
704,8547;0,0733032
705,8189;0,0730103
706,7831;0,0727307
707,7474;0,0724591
708,7116;0,0721797
709,6758;0,0718705
710,6401;0,0715124
711,6043;0,0710987
712,5685;0,0706423
713,5328;0,0701732
714,4970;0,069727
715,4612;0,0695369
716,4255;0,0691399
717,3897;0,068748
718,3539;0,0683345
719,3182;0,0678832
720,2824;0,0673955
721,2466;0,0668869
722,2109;0,0663744
723,1751;0,065867
724,1393;0,0653659
725,1036;0,0648711
726,0678;0,0643867
727,0320;0,0639187
727,9963;0,0634686
728,9605;0,0630305
729,9247;0,0625948
730,8890;0,0621578
731,8532;0,0617279
732,8174;0,0613219
733,7817;0,0609553
734,7459;0,0606324
735,7101;0,0603445
736,6744;0,0600762
737,6386;0,0598145
738,6028;0,0595537
739,5671;0,059295
740,5313;0,0590419
741,4955;0,0587968
742,4598;0,058559
743,4240;0,0583249
744,3882;0,0580893
745,3525;0,0578476
746,3167;0,0575988
747,2809;0,0573474
748,2452;0,0571024
749,2094;0,0568711
750,1736;0,0566533
751,1379;0,0564382
752,1021;0,0562085
753,0663;0,0559498
754,0306;0,0556592
754,9948;0,0553477
755,9590;0,0550352
756,9233;0,0547414
757,8875;0,0544776
758,8517;0,0542435
759,8160;0,0540284
760,7802;0,0538169
761,7444;0,0535953
762,7087;0,0533581
763,6729;0,0531114
764,6371;0,0528722
765,6014;0,052662
766,5656;0,0524976
767,5298;0,0523825
768,4941;0,0523047
769,4583;0,0522419
770,4225;0,0521703
771,3868;0,0520738
772,3510;0,0519467
773,3152;0,051792
774,2795;0,0516171
775,2437;0,05143
776,2079;0,0512384
777,1722;0,0510487
778,1364;0,0508659
779,1006;0,050692
780,0649;0,0505254
781,0291;0,0503615
781,9933;0,0501953
782,9576;0,0500244
783,9218;0,0498493
784,8860;0,049673
785,8503;0,0494996
786,8145;0,0493329
787,7787;0,0491766
788,7430;0,0490343
789,7072;0,0489084
790,6714;0,0487985
791,6357;0,0487006
792,5999;0,048607
793,5641;0,0485096
794,5284;0,0484026
795,4926;0,0482862
796,4568;0,0481673
797,4211;0,048057
798,3853;0,047966
799,3495;0,0478993
800,3138;0,0478531
801,2780;0,0478157
802,2422;0,0477719
803,2065;0,0477095
804,1707;0,0476235
805,1349;0,0475165
806,0992;0,0473968
807,0634;0,0472743
808,0276;0,0471576
808,9919;0,0470527
809,9561;0,0469633
810,9203;0,0468913
811,8846;0,0468376
812,8488;0,0468027
813,8130;0,0467866
814,7773;0,0467878
815,7415;0,0468014
816,7057;0,046818
817,6700;0,046825
818,6342;0,0468113
819,5984;0,0467731
820,5627;0,0467169
821,5269;0,0466572
822,4911;0,0466101
823,4554;0,0465854
824,4196;0,0465824
825,3839;0,0465916
826,3481;0,046601
827,3123;0,0466016
828,2766;0,0465906
829,2408;0,0465694
830,2050;0,0465387
831,1693;0,0464958
832,1335;0,0464344
833,0977;0,0463493
834,0620;0,0462407
835,0262;0,0461155
835,9904;0,0459847
836,9547;0,0458564
837,9189;0,0457313
838,8831;0,0456038
839,8474;0,0454688
840,8116;0,0453296
841,7758;0,0452007
842,7401;0,0451024
843,7043;0,0450489
844,6685;0,0450391
845,6328;0,045056
846,5970;0,0450756
847,5612;0,0450793
848,5255;0,0450625
849,4897;0,0450335
850,4539;0,0450053
851,4182;0,0449867
852,3824;0,0449778
853,3466;0,0449722
854,3109;0,0449618
855,2751;0,0449414
856,2393;0,04491
857,2036;0,0448699
858,1678;0,0448252
859,1320;0,0447811
860,0963;0,0447424
861,0605;0,0447121
862,0247;0,0446903
862,9890;0,0446754
863,9532;0,0446665
864,9174;0,0446669
865,8817;0,0446839
866,8459;0,0447266
867,8101;0,0448009
868,7744;0,0449059
869,7386;0,0450351
870,7028;0,0451796
871,6671;0,0453316
872,6313;0,045485
873,5955;0,0456339
874,5598;0,0457702
875,5240;0,0458854
876,4882;0,0459756
877,4525;0,0460475
878,4167;0,0461195
879,3809;0,0462181
880,3452;0,0463681
881,3094;0,0465847
882,2736;0,0468687
883,2379;0,0472089
884,2021;0,047589
885,1663;0,0479957
886,1306;0,0484243
887,0948;0,0488807
888,0590;0,0493777
889,0233;0,0499266
889,9875;0,0505274
890,9517;0,0511612
891,9160;0,0517903
892,8802;0,0523679
893,8444;0,0528532
894,8087;0,0532236
895,7729;0,0534783
896,7371;0,0536308
897,7014;0,0536967
898,6656;0,0536842
899,6298;0,0535944
900,5941;0,0534273
901,5583;0,05319
902,5225;0,0528989
903,4868;0,0525765
904,4510;0,0522459
905,4152;0,0519276
906,3795;0,0516386
907,3437;0,0513944
908,3079;0,0512063
909,2722;0,0510795
910,2364;0,0510098
911,2007;0,0509859
912,1649;0,0509951
913,1292;0,0510292
914,0934;0,0510866
915,0576;0,0511689
916,0219;0,0512757
916,9861;0,0514015
917,9503;0,0515375
918,9146;0,0516773
919,8788;0,0518208
920,8430;0,0519737
921,8073;0,0521421
922,7715;0,0523265
923,7357;0,0525185
924,7000;0,0527041
925,6642;0,0528704
926,6284;0,0530113
927,5927;0,0531289
928,5569;0,0532307
929,5211;0,0533245
930,4854;0,0534168
931,4496;0,0535124
932,4138;0,0536171
933,3781;0,0537382
934,3423;0,0538834
935,3065;0,0540587
936,2708;0,0542684
937,2350;0,0545159
938,1992;0,054806
939,1635;0,055143
940,1277;0,055528
941,0919;0,0559561
942,0562;0,0564171
943,0204;0,0569019
943,9846;0,0574087
944,9489;0,0579454
945,9131;0,0585254
946,8773;0,0591592
947,8416;0,0598475
948,8058;0,0605802
949,7700;0,0613421
950,7343;0,0621212
951,6985;0,0629142
952,6627;0,0637262
953,6270;0,0645675
954,5912;0,065448
955,5554;0,0663742
956,5197;0,0673476
957,4839;0,0683657
958,4481;0,0694234
959,4124;0,0705141
960,3766;0,0716306
961,3408;0,0727656
962,3051;0,0739122
963,2693;0,0750651
964,2335;0,0762221
965,1978;0,0773846
966,1620;0,0785583
967,1262;0,0797522
968,0905;0,0809771
969,0547;0,0822455
970,0189;0,0835716
970,9832;0,0849715
971,9474;0,0864611
972,9116;0,0880543
973,8759;0,0897596
974,8401;0,0915805
975,8043;0,0935153
976,7686;0,0955572
977,7328;0,09769
978,6970;0,0998806
979,6613;0,102075
980,6255;0,104201
981,5897;0,106183
982,5540;0,10796
983,5182;0,109502
984,4824;0,110815
985,4467;0,111929
986,4109;0,112887
987,3751;0,113724
988,3394;0,114469
989,3036;0,115143
990,2678;0,115762
991,2321;0,116342
992,1963;0,116897
993,1605;0,117429
994,1248;0,117939
995,0890;0,11842
996,0532;0,118871
997,0175;0,119297
997,9817;0,119709
998,9459;0,120122
999,9102;0,120548
1000,8744;0,120997
1001,8386;0,121479
1002,8029;0,122004
1003,7671;0,122583
1004,7313;0,12323
1005,6956;0,12396
1006,6598;0,124785
1007,6240;0,125712
1008,5883;0,126738
1009,5525;0,127851
1010,5167;0,129028
1011,4810;0,130243
1012,4452;0,131464
1013,4094;0,132663
1014,3737;0,133812
1015,3379;0,134882
1016,3021;0,135846
1017,2664;0,136682
1018,2306;0,137386
1019,1948;0,137967
1020,1591;0,138453
1021,1233;0,138878
1022,0875;0,139274
1023,0518;0,139661
1024,0160;0,140048
1024,9802;0,140432
1025,9445;0,1408
1026,9087;0,141133
1027,8729;0,141404
1028,8372;0,141574
1029,8014;0,1416
1030,7656;0,141436
1031,7299;0,141042
1032,6941;0,140394
1033,6583;0,139494
1034,6226;0,138371
1035,5868;0,137079
1036,5510;0,135695
1037,5153;0,134304
1038,4795;0,132987
1039,4437;0,131812
1040,4080;0,130822
1041,3722;0,130035
1042,3364;0,129439
1043,3007;0,129003
1044,2649;0,12868
1045,2291;0,128422
1046,1934;0,128184
1047,1576;0,12793
1048,1218;0,127633
1049,0861;0,127269
1050,0503;0,126815
1051,0145;0,126254
1051,9788;0,125579
1052,9430;0,124795
1053,9072;0,123913
1054,8715;0,122945
1055,8357;0,121883
1056,7999;0,120703
1057,7642;0,119363
1058,7284;0,117828
1059,6926;0,116084
1060,6569;0,114156
1061,6211;0,112104
1062,5853;0,11001
1063,5496;0,107961
1064,5138;0,106027
1065,4780;0,104252
1066,4423;0,102654
1067,4065;0,101229
1068,3707;0,0999552
1069,3350;0,0987991
1070,2992;0,0977233
1071,2634;0,096691
1072,2277;0,0956721
1073,1919;0,0946461
1074,1561;0,0936034
1075,1204;0,0925426
1076,0846;0,0914677
1077,0488;0,090387
1078,0131;0,0893137
1078,9773;0,0882681
1079,9415;0,087278
1080,9058;0,0863749
1081,8700;0,0855865
1082,8342;0,0849282
1083,7985;0,0843989
1084,7627;0,083982
1085,7269;0,083653
1086,6912;0,0833891
1087,6554;0,0831767
1088,6196;0,0830131
1089,5839;0,0829032
1090,5481;0,0828541
1091,5123;0,0828702
1092,4766;0,0829516
1093,4408;0,0830953
1094,4050;0,0832963
1095,3693;0,0835477
1096,3335;0,0838394
1097,2977;0,084156
1098,2620;0,0844772
1099,2262;0,0847801
1100,1904;0,0850437
1101,1547;0,0852527
1102,1189;0,0854011
1103,0831;0,0854909
1104,0474;0,0855295
1105,0116;0,0855248
1105,9758;0,0854813
1106,9401;0,0853966
1107,9043;0,0852593
1108,8685;0,0850486
1109,8328;0,0847358
1110,7970;0,0842893
1111,7612;0,0836839
1112,7255;0,0829124
1113,6897;0,0819947
1114,6539;0,0809798
1115,6182;0,0799367
1116,5824;0,0789363
1117,5466;0,0780306
1118,5109;0,0772383
1119,4751;0,0765406
1120,4393;0,0758898
1121,4036;0,0752239
1122,3678;0,0744838
1123,3320;0,0736256
1124,2963;0,072628
1125,2605;0,0714937
1126,2247;0,0702458
1127,1890;0,0689206
1128,1532;0,0675579
1129,1174;0,0661921
1130,0817;0,0648458
1131,0459;0,0635303
1132,0101;0,0622511
1132,9744;0,0610166
1133,9386;0,0598448
1134,9028;0,0587641
1135,8671;0,0578081
1136,8313;0,0570064
1137,7955;0,0563768
1138,7598;0,0559215
1139,7240;0,0556297
1140,6882;0,0554828
1141,6525;0,0554594
1142,6167;0,0555377
1143,5809;0,0556962
1144,5452;0,0559139
1145,5094;0,0561728
1146,4736;0,0564621
1147,4379;0,0567805
1148,4021;0,0571347
1149,3663;0,057533
1150,3306;0,0579774
1151,2948;0,0584574
1152,2590;0,0589514
1153,2233;0,0594314
1154,1875;0,05987
1155,1517;0,0602434
1156,1160;0,0605287
1157,0802;0,0606997
1158,0444;0,0607228
1159,0087;0,0605576
1159,9729;0,0601619
1160,9371;0,0594995
1161,9014;0,0585489
1162,8656;0,0573099
1163,8298;0,0558076
1164,7941;0,0540922
1165,7583;0,052234
1166,7225;0,0503143
1167,6868;0,0484133
1168,6510;0,0465991
1169,6152;0,0449207
1170,5795;0,0434054
1171,5437;0,0420619
1172,5079;0,0408846
1173,4722;0,0398598
1174,4364;0,0389699
1175,4006;0,0381974
1176,3649;0,0375277
1177,3291;0,0369503
1178,2933;0,0364579
1179,2576;0,0360443
1180,2218;0,0357025
1181,1860;0,0354232
1182,1503;0,0351969
1183,1145;0,0350158
1184,0787;0,0348762
1185,0430;0,0347795
1186,0072;0,0347303
1186,9714;0,0347345
1187,9357;0,0347968
1188,8999;0,0349187
1189,8641;0,0350988
1190,8284;0,0353339
1191,7926;0,035621
1192,7568;0,0359583
1193,7211;0,0363449
1194,6853;0,0367786
1195,6495;0,0372541
1196,6138;0,037761
1197,5780;0,0382855
1198,5422;0,0388125
1199,5065;0,039282
1200,4707;0,039786
1201,4349;0,0402683
1202,3992;0,0407276
1203,3634;0,0411628
1204,3276;0,041571
1205,2919;0,0419489
1206,2561;0,0422958
1207,2203;0,0426164
1208,1846;0,0429237
1209,1488;0,0432378
1210,1130;0,043582
1211,0773;0,0439773
1212,0415;0,0444368
1213,0057;0,0449643
1213,9700;0,0455546
1214,9342;0,0461976
1215,8984;0,0468807
1216,8627;0,0475895
1217,8269;0,0483083
1218,7911;0,0490213
1219,7554;0,049716
1220,7196;0,0503857
1221,6838;0,0510306
1222,6481;0,0516549
1223,6123;0,0522615
1224,5765;0,0528487
1225,5408;0,0534096
1226,5050;0,0539363
1227,4692;0,0544247
1228,4335;0,0548759
1229,3977;0,0552939
1230,3619;0,0556814
1231,3262;0,0560355
1232,2904;0,0563487
1233,2546;0,056612
1234,2189;0,0568199
1235,1831;0,0569728
1236,1473;0,0570774
1237,1116;0,057144
1238,0758;0,0571835
1239,0400;0,0572044
1240,0043;0,0572111
1240,9685;0,0572021
1241,9327;0,0571704
1242,8970;0,0571049
1243,8612;0,0569947
1244,8254;0,0568334
1245,7897;0,0566216
1246,7539;0,0563671
1247,7181;0,0560817
1248,6824;0,0557777
1249,6466;0,0554648
1250,6108;0,0551502
1251,5751;0,0548391
1252,5393;0,0545362
1253,5035;0,0542448
1254,4678;0,0539648
1255,4320;0,0536925
1256,3962;0,0534204
1257,3605;0,0531405
1258,3247;0,0528461
1259,2889;0,0525332
1260,2532;0,0521999
1261,2174;0,0518444
1262,1816;0,0514647
1263,1459;0,0510592
1264,1101;0,0506286
1265,0743;0,0501773
1266,0386;0,0497123
1267,0028;0,0492403
1267,9670;0,0487653
1268,9313;0,0482876
1269,8955;0,0478051
1270,8597;0,047316
1271,8240;0,0468212
1272,7882;0,0463245
1273,7524;0,0458325
1274,7167;0,0453529
1275,6809;0,0448924
1276,6451;0,0444552
1277,6094;0,0440404
1278,5736;0,043641
1279,5378;0,0432465
1280,5021;0,0428472
1281,4663;0,0424395
1282,4305;0,0420285
1283,3948;0,0416262
1284,3590;0,0412466
1285,3232;0,0409014
1286,2875;0,0405969
1287,2517;0,0403343
1288,2159;0,0401112
1289,1802;0,0399237
1290,1444;0,0397679
1291,1086;0,0396423
1292,0729;0,0395485
1293,0371;0,0394929
1294,0013;0,0394849
1294,9656;0,0395337
1295,9298;0,0396445
1296,8940;0,0398165
1297,8583;0,0400438
1298,8225;0,040319
1299,7867;0,0406363
1300,7510;0,0409928
1301,7152;0,0413876
1302,6794;0,0418196
1303,6437;0,0422862
1304,6079;0,0427832
1305,5721;0,0433047
1306,5364;0,0438435
1307,5006;0,0443925
1308,4648;0,0449452
1309,4291;0,0454952
1310,3933;0,0460346
1311,3575;0,0465508
1312,3218;0,047026
1313,2860;0,0474394
1314,2502;0,0477716
1315,2145;0,0480076
1316,1787;0,0481385
1317,1429;0,048161
1318,1072;0,0480801
1319,0714;0,0479124
1320,0356;0,0476861
1320,9999;0,0474343
1321,9641;0,0471856
1322,9283;0,0469573
1323,8926;0,0467561
1324,8568;0,0465829
1325,8210;0,0464374
1326,7853;0,0463214
1327,7495;0,0462368
1328,7137;0,0461823
1329,6780;0,0461495
1330,6422;0,0461226
1331,6064;0,0460819
1332,5707;0,0460104
1333,5349;0,0458987
1334,4991;0,045745
1335,4634;0,0455491
1336,4276;0,0453075
1337,3918;0,0450118
1338,3561;0,0446562
1339,3203;0,0442516
1340,2845;0,0438301
1341,2488;0,0434316
1342,2130;0,0430833
1343,1772;0,0427927
1344,1415;0,0425567
1345,1057;0,0423725
1346,0699;0,0422434
1347,0342;0,0421772
1347,9984;0,0421818
1348,9626;0,0422595
