TITLE;
DATA TYPE;INFRARED SPECTRUM
ORIGIN;JASCO
OWNER;
DATE;25/02/04
TIME;09:20:51
SPECTROMETER/DATA SYSTEM;
LOCALE;9226
RESOLUTION;
DELTAX;0,964233
XUNITS;1/CM
YUNITS;ABSORBANCE
FIRSTX;  399,1927
LASTX; 4000,6047
NPOINTS;    3736
FIRSTY;     0,14706
MAXY;     0,17441
MINY;     0,00125
XYDATA
399,1927;0,147063
400,1569;0,146786
401,1211;0,147159
402,0854;0,147613
403,0496;0,147932
404,0138;0,148167
404,9781;0,148457
405,9423;0,14885
406,9065;0,149203
407,8708;0,149238
408,8350;0,148726
409,7992;0,147665
410,7635;0,146338
411,7277;0,145168
412,6919;0,144463
413,6562;0,144234
414,6204;0,144243
415,5846;0,144176
416,5489;0,143822
417,5131;0,143222
418,4773;0,142739
419,4416;0,142774
420,4058;0,1433
421,3700;0,143921
422,3343;0,144331
423,2985;0,144495
424,2627;0,144571
425,2270;0,144755
426,1912;0,145155
427,1554;0,145719
428,1197;0,146289
429,0839;0,146707
430,0481;0,146906
431,0124;0,146924
431,9766;0,146869
432,9408;0,146848
433,9051;0,146919
434,8693;0,14707
435,8335;0,147233
436,7978;0,147307
437,7620;0,147196
438,7262;0,146845
439,6905;0,146265
440,6547;0,14556
441,6189;0,144912
442,5832;0,144519
443,5474;0,144496
444,5116;0,144783
445,4759;0,145176
446,4401;0,145446
447,4043;0,145458
448,3686;0,145205
449,3328;0,144787
450,2970;0,144344
451,2613;0,143985
452,2255;0,143732
453,1897;0,143518
454,1540;0,143235
455,1182;0,142815
456,0824;0,142313
457,0467;0,141927
458,0109;0,141915
458,9751;0,142394
459,9394;0,143227
460,9036;0,144113
461,8678;0,144791
462,8321;0,145151
463,7963;0,14524
464,7605;0,145194
465,7248;0,145131
466,6890;0,145061
467,6532;0,144883
468,6175;0,14448
469,5817;0,143837
470,5459;0,14312
471,5102;0,142632
472,4744;0,142636
473,4386;0,143157
474,4029;0,143954
475,3671;0,144686
476,3313;0,145116
477,2956;0,145177
478,2598;0,144935
479,2240;0,144505
480,1883;0,143995
481,1525;0,14349
482,1167;0,143069
483,0810;0,142821
484,0452;0,142821
485,0094;0,143068
485,9737;0,14346
486,9379;0,143834
487,9021;0,144058
488,8664;0,144096
489,8306;0,144007
490,7948;0,143902
491,7591;0,143871
492,7233;0,14393
493,6875;0,144024
494,6518;0,144081
495,6160;0,144064
496,5802;0,143984
497,5445;0,143879
498,5087;0,143779
499,4729;0,143688
500,4372;0,143587
501,4014;0,143449
502,3656;0,143259
503,3299;0,14303
504,2941;0,142802
505,2583;0,142632
506,2226;0,142582
507,1868;0,142711
508,1510;0,143045
509,1153;0,143566
510,0795;0,144204
511,0437;0,144858
512,0080;0,145418
512,9722;0,145795
513,9365;0,14594
514,9007;0,145869
515,8649;0,145671
516,8292;0,145507
517,7934;0,145537
518,7576;0,145829
519,7219;0,146301
520,6861;0,146768
521,6503;0,147049
522,6146;0,147053
523,5788;0,146803
524,5430;0,146419
525,5073;0,146066
526,4715;0,145867
527,4357;0,145844
528,4000;0,145924
529,3642;0,145993
530,3284;0,145962
531,2927;0,145787
532,2569;0,145472
533,2211;0,145054
534,1854;0,144587
535,1496;0,144129
536,1138;0,143727
537,0781;0,143409
538,0423;0,143177
539,0065;0,14301
539,9708;0,142877
540,9350;0,14275
541,8992;0,142622
542,8635;0,142507
543,8277;0,142441
544,7919;0,142464
545,7562;0,1426
546,7204;0,142848
547,6846;0,143176
548,6489;0,143538
549,6131;0,143888
550,5773;0,144198
551,5416;0,144465
552,5058;0,144711
553,4700;0,144972
554,4343;0,145269
555,3985;0,145587
556,3627;0,145854
557,3270;0,145951
558,2912;0,145754
559,2554;0,145194
560,2197;0,14429
561,1839;0,143149
562,1481;0,14192
563,1124;0,14073
564,0766;0,139646
565,0408;0,138676
566,0051;0,137812
566,9693;0,137059
567,9335;0,136447
568,8978;0,136
569,8620;0,135706
570,8262;0,135507
571,7905;0,135331
572,7547;0,13513
573,7189;0,134898
574,6832;0,134661
575,6474;0,134444
576,6116;0,134244
577,5759;0,134029
578,5401;0,13377
579,5043;0,133467
580,4686;0,133165
581,4328;0,13293
582,3970;0,132814
583,3613;0,132827
584,3255;0,132924
585,2897;0,133035
586,2540;0,133093
587,2182;0,133067
588,1824;0,132962
589,1467;0,132813
590,1109;0,132658
591,0751;0,132526
592,0394;0,132423
593,0036;0,132335
593,9678;0,132235
594,9321;0,132102
595,8963;0,131921
596,8605;0,131694
597,8248;0,131432
598,7890;0,131158
599,7532;0,130896
600,7175;0,130661
601,6817;0,130452
602,6459;0,130252
603,6102;0,130038
604,5744;0,129791
605,5386;0,129508
606,5029;0,129194
607,4671;0,128844
608,4313;0,128438
609,3956;0,127953
610,3598;0,12739
611,3240;0,126807
612,2883;0,126305
613,2525;0,125991
614,2167;0,125898
615,1810;0,12594
616,1452;0,125917
617,1094;0,125602
618,0737;0,124866
619,0379;0,123757
620,0021;0,122465
620,9664;0,121211
621,9306;0,120143
622,8948;0,119296
623,8591;0,118618
624,8233;0,117977
625,7875;0,117416
626,7518;0,116913
627,7160;0,116467
628,6802;0,116064
629,6445;0,115686
630,6087;0,115308
631,5729;0,114925
632,5372;0,114543
633,5014;0,114177
634,4656;0,113842
635,4299;0,113545
636,3941;0,113297
637,3583;0,113113
638,3226;0,113001
639,2868;0,112956
640,2510;0,11295
641,2153;0,112945
642,1795;0,112912
643,1437;0,112848
644,1080;0,112774
645,0722;0,112708
646,0364;0,112647
647,0007;0,112558
647,9649;0,112403
648,9291;0,112171
649,8934;0,111895
650,8576;0,111646
651,8218;0,111496
652,7861;0,111483
653,7503;0,111607
654,7145;0,111828
655,6788;0,112082
656,6430;0,112306
657,6072;0,11246
658,5715;0,112529
659,5357;0,112513
660,4999;0,112386
661,4642;0,112078
662,4284;0,111467
663,3926;0,110423
664,3569;0,108922
665,3211;0,107242
666,2853;0,106053
667,2496;0,106053
668,2138;0,107035
669,1780;0,107892
670,1423;0,108145
671,1065;0,108005
672,0707;0,107519
673,0350;0,106609
673,9992;0,105353
674,9634;0,10397
675,9277;0,102679
676,8919;0,101571
677,8561;0,100607
678,8204;0,0997078
679,7846;0,0988292
680,7488;0,097976
681,7131;0,0971743
682,6773;0,0964303
683,6415;0,0957328
684,6058;0,0950702
685,5700;0,0944486
686,5342;0,0938896
687,4985;0,0934142
688,4627;0,0930384
689,4269;0,0927454
690,3912;0,0925102
691,3554;0,0923056
692,3196;0,0921024
693,2839;0,0918708
694,2481;0,0915875
695,2123;0,0912457
696,1766;0,0908599
697,1408;0,0904575
698,1050;0,0900645
699,0693;0,0896908
700,0335;0,0893287
700,9977;0,0889609
701,9620;0,0885736
702,9262;0,0881631
703,8904;0,087716
704,8547;0,0872483
705,8189;0,0867738
706,7831;0,0863031
707,7474;0,0858409
708,7116;0,085383
709,6758;0,0849143
710,6401;0,0844108
711,6043;0,0838498
712,5685;0,083228
713,5328;0,0825764
714,4970;0,0819566
715,4612;0,0803235
716,4255;0,0801651
717,3897;0,080187
718,3539;0,0802183
719,3182;0,0800304
720,2824;0,0794505
721,2466;0,0784632
722,2109;0,0772201
723,1751;0,0759506
724,1393;0,0748434
725,1036;0,0739785
726,0678;0,0733281
727,0320;0,0728037
727,9963;0,0723145
728,9605;0,0718077
729,9247;0,0712772
730,8890;0,0707476
731,8532;0,0702499
732,8174;0,0698051
733,7817;0,0694187
734,7459;0,0690827
735,7101;0,0687808
736,6744;0,0684932
737,6386;0,0682015
738,6028;0,0678915
739,5671;0,0675575
740,5313;0,067203
741,4955;0,0668407
742,4598;0,0664872
743,4240;0,0661571
744,3882;0,0658555
745,3525;0,0655757
746,3167;0,0653018
747,2809;0,065017
748,2452;0,0647118
749,2094;0,0643877
750,1736;0,0640542
751,1379;0,0637221
752,1021;0,0633963
753,0663;0,0630732
754,0306;0,0627442
754,9948;0,0624006
755,9590;0,0620401
756,9233;0,0616679
757,8875;0,0612957
758,8517;0,0609369
759,8160;0,0606032
760,7802;0,0603008
761,7444;0,0600298
762,7087;0,0597839
763,6729;0,0595522
764,6371;0,0593221
765,6014;0,0590831
766,5656;0,0588305
767,5298;0,0585678
768,4941;0,0583036
769,4583;0,058046
770,4225;0,0577956
771,3868;0,0575437
772,3510;0,057277
773,3152;0,0569868
774,2795;0,056677
775,2437;0,0563656
776,2079;0,0560768
777,1722;0,0558289
778,1364;0,055624
779,1006;0,0554461
780,0649;0,0552689
781,0291;0,0550682
781,9933;0,0548339
782,9576;0,0545742
783,9218;0,0543107
784,8860;0,0540662
785,8503;0,0538531
786,8145;0,0536667
787,7787;0,0534887
788,7430;0,0532986
789,7072;0,0530853
790,6714;0,0528535
791,6357;0,0526204
792,5999;0,0524063
793,5641;0,0522247
794,5284;0,0520776
795,4926;0,0519581
796,4568;0,0518556
797,4211;0,0517591
798,3853;0,0516591
799,3495;0,0515477
800,3138;0,0514202
801,2780;0,0512778
802,2422;0,0511289
803,2065;0,0509845
804,1707;0,0508533
805,1349;0,0507355
806,0992;0,0506246
807,0634;0,0505121
808,0276;0,0503946
808,9919;0,050276
809,9561;0,050164
810,9203;0,0500647
811,8846;0,0499789
812,8488;0,0499032
813,8130;0,0498333
814,7773;0,0497677
815,7415;0,0497083
816,7057;0,0496579
817,6700;0,0496195
818,6342;0,0495949
819,5984;0,0495847
820,5627;0,0495873
821,5269;0,0495979
822,4911;0,0496075
823,4554;0,0496057
824,4196;0,0495845
825,3839;0,0495427
826,3481;0,0494865
827,3123;0,0494257
828,2766;0,0493686
829,2408;0,0493166
830,2050;0,0492641
831,1693;0,049201
832,1335;0,0491192
833,0977;0,0490167
834,0620;0,0488982
835,0262;0,0487725
835,9904;0,0486468
836,9547;0,0485222
837,9189;0,0483935
838,8831;0,0482519
839,8474;0,0480906
840,8116;0,0479093
841,7758;0,0477152
842,7401;0,0475212
843,7043;0,0473412
844,6685;0,0471857
845,6328;0,0470595
846,5970;0,046961
847,5612;0,0468839
848,5255;0,0468206
849,4897;0,0467662
850,4539;0,0467203
851,4182;0,0466869
852,3824;0,0466704
853,3466;0,0466703
854,3109;0,0466795
855,2751;0,0466861
856,2393;0,0466798
857,2036;0,0466577
858,1678;0,0466264
859,1320;0,0465986
860,0963;0,0465867
861,0605;0,0465979
862,0247;0,0466333
862,9890;0,0466905
863,9532;0,0467674
864,9174;0,0468645
865,8817;0,0469846
866,8459;0,0471311
867,8101;0,0473063
868,7744;0,0475097
869,7386;0,0477354
870,7028;0,04797
871,6671;0,048193
872,6313;0,0483811
873,5955;0,0485167
874,5598;0,0485969
875,5240;0,0486374
876,4882;0,0486676
877,4525;0,0487206
878,4167;0,0488212
879,3809;0,0489802
880,3452;0,0491962
881,3094;0,0494616
882,2736;0,0497707
883,2379;0,0501222
884,2021;0,0505188
885,1663;0,0509637
886,1306;0,0514582
887,0948;0,0520008
888,0590;0,052588
889,0233;0,0532135
889,9875;0,0538669
890,9517;0,0545321
891,9160;0,0551869
892,8802;0,0558041
893,8444;0,0563553
894,8087;0,0568149
895,7729;0,0571637
896,7371;0,0573912
897,7014;0,0574964
898,6656;0,057486
899,6298;0,0573717
900,5941;0,0571673
901,5583;0,0568871
902,5225;0,0565469
903,4868;0,0561668
904,4510;0,055773
905,4152;0,0553965
906,3795;0,055067
907,3437;0,0548049
908,3079;0,0546158
909,2722;0,0544908
910,2364;0,0544135
911,2007;0,05437
912,1649;0,0543558
913,1292;0,0543772
914,0934;0,0544458
915,0576;0,0545701
916,0219;0,0547494
916,9861;0,0549729
917,9503;0,0552239
918,9146;0,0554856
919,8788;0,0557463
920,8430;0,0560013
921,8073;0,0562513
922,7715;0,0564993
923,7357;0,0567469
924,7000;0,056992
925,6642;0,057229
926,6284;0,0574508
927,5927;0,057652
928,5569;0,0578313
929,5211;0,0579919
930,4854;0,0581395
931,4496;0,0582795
932,4138;0,0584157
933,3781;0,0585527
934,3423;0,0586984
935,3065;0,0588663
936,2708;0,0590734
937,2350;0,0593353
938,1992;0,0596613
939,1635;0,0600514
940,1277;0,0604996
941,0919;0,0609985
942,0562;0,0615443
943,0204;0,0621372
943,9846;0,0627803
944,9489;0,0634754
945,9131;0,0642219
946,8773;0,0650176
947,8416;0,0658617
948,8058;0,0667572
949,7700;0,0677114
950,7343;0,0687336
951,6985;0,0698313
952,6627;0,0710072
953,6270;0,0722582
954,5912;0,0735767
955,5554;0,0749527
956,5197;0,0763752
957,4839;0,0778327
958,4481;0,079313
959,4124;0,0808043
960,3766;0,0822971
961,3408;0,0837879
962,3051;0,0852794
963,2693;0,086778
964,2335;0,0882895
965,1978;0,0898153
966,1620;0,0913538
967,1262;0,092906
968,0905;0,0944812
969,0547;0,0961006
970,0189;0,0977936
970,9832;0,0995903
971,9474;0,101515
972,9116;0,103585
973,8759;0,105807
974,8401;0,108186
975,8043;0,110719
976,7686;0,113397
977,7328;0,11619
978,6970;0,119055
979,6613;0,121927
980,6255;0,12473
981,5897;0,127389
982,5540;0,129835
983,5182;0,132022
984,4824;0,13393
985,4467;0,135571
986,4109;0,136978
987,3751;0,1382
988,3394;0,139286
989,3036;0,140275
990,2678;0,141188
991,2321;0,142035
992,1963;0,142817
993,1605;0,143531
994,1248;0,144178
995,0890;0,144764
996,0532;0,145295
997,0175;0,145779
997,9817;0,146224
998,9459;0,146643
999,9102;0,147056
1000,8744;0,147487
1001,8386;0,147965
1002,8029;0,148515
1003,7671;0,149154
1004,7313;0,149895
1005,6956;0,150747
1006,6598;0,151727
1007,6240;0,152853
1008,5883;0,154141
1009,5525;0,155585
1010,5167;0,157158
1011,4810;0,158804
1012,4452;0,160458
1013,4094;0,162059
1014,3737;0,163566
1015,3379;0,164955
1016,3021;0,166216
1017,2664;0,167344
1018,2306;0,168332
1019,1948;0,169179
1020,1591;0,169895
1021,1233;0,170505
1022,0875;0,171043
1023,0518;0,171545
1024,0160;0,172038
1024,9802;0,172534
1025,9445;0,173027
1026,9087;0,173495
1027,8729;0,173908
1028,8372;0,174227
1029,8014;0,174407
1030,7656;0,1744
1031,7299;0,174154
1032,6941;0,173627
1033,6583;0,172798
1034,6226;0,171676
1035,5868;0,170315
1036,5510;0,168807
1037,5153;0,167271
1038,4795;0,165828
1039,4437;0,164581
1040,4080;0,163595
1041,3722;0,162894
1042,3364;0,162457
1043,3007;0,162236
1044,2649;0,162162
1045,2291;0,162166
1046,1934;0,162185
1047,1576;0,162169
1048,1218;0,16208
1049,0861;0,161888
1050,0503;0,161559
1051,0145;0,161065
1051,9788;0,160382
1052,9430;0,159504
1053,9072;0,158445
1054,8715;0,15723
1055,8357;0,155876
1056,7999;0,154371
1057,7642;0,152674
1058,7284;0,15073
1059,6926;0,148509
1060,6569;0,146029
1061,6211;0,143373
1062,5853;0,140664
1063,5496;0,138032
1064,5138;0,135571
1065,4780;0,133326
1066,4423;0,131294
1067,4065;0,129446
1068,3707;0,127746
1069,3350;0,126165
1070,2992;0,124681
1071,2634;0,123268
1072,2277;0,121894
1073,1919;0,120515
1074,1561;0,11909
1075,1204;0,117584
1076,0846;0,115986
1077,0488;0,11431
1078,0131;0,112597
1078,9773;0,110904
1079,9415;0,10929
1080,9058;0,107802
1081,8700;0,10647
1082,8342;0,1053
1083,7985;0,104286
1084,7627;0,103413
1085,7269;0,102665
1086,6912;0,102028
1087,6554;0,101492
1088,6196;0,101048
1089,5839;0,100692
1090,5481;0,100418
1091,5123;0,100226
1092,4766;0,100115
1093,4408;0,100082
1094,4050;0,100126
1095,3693;0,100241
1096,3335;0,10042
1097,2977;0,100651
1098,2620;0,100918
1099,2262;0,101198
1100,1904;0,101463
1101,1547;0,101685
1102,1189;0,101835
1103,0831;0,101894
1104,0474;0,101853
1105,0116;0,101717
1105,9758;0,101504
1106,9401;0,101235
1107,9043;0,10092
1108,8685;0,100554
1109,8328;0,100103
1110,7970;0,099516
1111,7612;0,0987426
1112,7255;0,0977566
1113,6897;0,096576
1114,6539;0,0952649
1115,6182;0,0939164
1116,5824;0,0926236
1117,5466;0,0914501
1118,5109;0,0904132
1119,4751;0,0894845
1120,4393;0,0886041
1121,4036;0,0877021
1122,3678;0,0867161
1123,3320;0,0856024
1124,2963;0,0843401
1125,2605;0,08293
1126,2247;0,0813907
1127,1890;0,0797538
1128,1532;0,0780568
1129,1174;0,076336
1130,0817;0,0746212
1131,0459;0,0729336
1132,0101;0,0712898
1132,9744;0,0697079
1133,9386;0,068213
1134,9028;0,0668382
1135,8671;0,0656197
1136,8313;0,0645884
1137,7955;0,0637636
1138,7598;0,0631506
1139,7240;0,0627434
1140,6882;0,062528
1141,6525;0,0624849
1142,6167;0,0625883
1143,5809;0,0628064
1144,5452;0,0631043
1145,5094;0,0634515
1146,4736;0,0638295
1147,4379;0,0642352
1148,4021;0,064677
1149,3663;0,0651651
1150,3306;0,0657006
1151,2948;0,0662694
1152,2590;0,0668432
1153,2233;0,0673859
1154,1875;0,0678625
1155,1517;0,0682424
1156,1160;0,0684991
1157,0802;0,0686034
1158,0444;0,0685166
1159,0087;0,0681878
1159,9729;0,0675591
1160,9371;0,0665788
1161,9014;0,0652188
1162,8656;0,0634887
1163,8298;0,0614394
1164,7941;0,0591553
1165,7583;0,0567375
1166,7225;0,0542868
1167,6868;0,0518902
1168,6510;0,0496148
1169,6152;0,0475075
1170,5795;0,0455961
1171,5437;0,0438928
1172,5079;0,0423964
1173,4722;0,0410965
1174,4364;0,0399764
1175,4006;0,0390166
1176,3649;0,0381963
1177,3291;0,0374951
1178,2933;0,0368937
1179,2576;0,0363759
1180,2218;0,0359293
1181,1860;0,0355463
1182,1503;0,0352235
1183,1145;0,0349606
1184,0787;0,0347591
1185,0430;0,0346213
1186,0072;0,0345496
1186,9714;0,0345462
1187,9357;0,0346123
1188,8999;0,0347479
1189,8641;0,0349525
1190,8284;0,0352253
1191,7926;0,035565
1192,7568;0,0359696
1193,7211;0,0364345
1194,6853;0,0369517
1195,6495;0,0375098
1196,6138;0,0380943
1197,5780;0,0386901
1198,5422;0,0392837
1199,5065;0,0401245
1200,4707;0,040658
1201,4349;0,0411726
1202,3992;0,0416727
1203,3634;0,0421621
1204,3276;0,042641
1205,2919;0,0431044
1206,2561;0,0435449
1207,2203;0,0439578
1208,1846;0,0443468
1209,1488;0,0447281
1210,1130;0,0451284
1211,0773;0,045578
1212,0415;0,0461004
1213,0057;0,0467045
1213,9700;0,0473817
1214,9342;0,0481113
1215,8984;0,0488675
1216,8627;0,0496298
1217,8269;0,0503861
1218,7911;0,051129
1219,7554;0,051853
1220,7196;0,0525529
1221,6838;0,0532234
1222,6481;0,0538613
1223,6123;0,0544659
1224,5765;0,0550385
1225,5408;0,0555802
1226,5050;0,0560891
1227,4692;0,0565617
1228,4335;0,0569946
1229,3977;0,0573872
1230,3619;0,057741
1231,3262;0,0580575
1232,2904;0,0583343
1233,2546;0,0585654
1234,2189;0,0587441
1235,1831;0,0588682
1236,1473;0,0589431
1237,1116;0,0589795
1238,0758;0,0589879
1239,0400;0,0589729
1240,0043;0,0589317
1240,9685;0,0588584
1241,9327;0,0587486
1242,8970;0,0586029
1243,8612;0,0584246
1244,8254;0,0582167
1245,7897;0,0579785
1246,7539;0,0577069
1247,7181;0,0574005
1248,6824;0,0570631
1249,6466;0,0567045
1250,6108;0,056338
1251,5751;0,0559774
1252,5393;0,0556328
1253,5035;0,0553085
1254,4678;0,055002
1255,4320;0,0547047
1256,3962;0,054405
1257,3605;0,0540934
1258,3247;0,0537664
1259,2889;0,0534282
1260,2532;0,0530861
1261,2174;0,0527435
1262,1816;0,0523947
1263,1459;0,0520261
1264,1101;0,0516222
1265,0743;0,0511718
1266,0386;0,0506726
1267,0028;0,0501302
1267,9670;0,0495562
1268,9313;0,0489647
1269,8955;0,0483712
1270,8597;0,0477891
1271,8240;0,0472271
1272,7882;0,0466862
1273,7524;0,0461601
1274,7167;0,0456401
1275,6809;0,0451208
1276,6451;0,044603
1277,6094;0,0440923
1278,5736;0,0435939
1279,5378;0,0431083
1280,5021;0,0426306
1281,4663;0,0421545
1282,4305;0,0416775
1283,3948;0,0412039
1284,3590;0,0407437
1285,3232;0,0403098
1286,2875;0,0399145
1287,2517;0,0395672
1288,2159;0,0392731
1289,1802;0,0390322
1290,1444;0,0388395
1291,1086;0,0386884
1292,0729;0,038574
1293,0371;0,038497
1294,0013;0,0384639
1294,9656;0,0384839
1295,9298;0,0385639
1296,8940;0,0387062
1297,8583;0,0389077
1298,8225;0,0391629
1299,7867;0,0394661
1300,7510;0,0398127
1301,7152;0,0401949
1302,6794;0,0406073
1303,6437;0,0410477
1304,6079;0,0415157
1305,5721;0,0420129
1306,5364;0,0425381
1307,5006;0,0430832
1308,4648;0,0436334
1309,4291;0,0441725
1310,3933;0,044689
1311,3575;0,0451776
1312,3218;0,0456343
1313,2860;0,0460481
1314,2502;0,0463964
1315,2145;0,0466499
1316,1787;0,046786
1317,1429;0,0468028
1318,1072;0,0467258
1319,0714;0,0465998
1320,0356;0,0464689
1320,9999;0,0463578
1321,9641;0,0462679
1322,9283;0,0461883
1323,8926;0,0461084
1324,8568;0,0460258
1325,8210;0,0459453
1326,7853;0,0458727
1327,7495;0,0458099
1328,7137;0,0457528
1329,6780;0,0456939
1330,6422;0,045624
1331,6064;0,0455315
1332,5707;0,0454025
1333,5349;0,0452146
1334,4991;0,0449379
1335,4634;0,04454
1336,4276;0,0440026
1337,3918;0,0433508
1338,3561;0,0426736
1339,3203;0,042094
1340,2845;0,0416912
1341,2488;0,0414531
1342,2130;0,0413065
1343,1772;0,0411789
1344,1415;0,0410287
1345,1057;0,0408475
1346,0699;0,0406534
1347,0342;0,0404843
1347,9984;0,0403824
1348,9626;0,0403772
1349,9269;0,0404731
1350,8911;0,0406501
1351,8553;0,0408761
1352,8196;0,0411232
1353,7838;0,0413819
1354,7480;0,0416632
