TITLE;
DATA TYPE;INFRARED SPECTRUM
ORIGIN;JASCO
OWNER;
DATE;25/03/18
TIME;10:28:45
SPECTROMETER/DATA SYSTEM;
LOCALE;9226
RESOLUTION;
DELTAX;0,964233
XUNITS;1/CM
YUNITS;ABSORBANCE
FIRSTX;  399,1927
LASTX; 4000,6047
NPOINTS;    3736
FIRSTY;     0,16423
MAXY;     0,21842
MINY;     0,01129
XYDATA
399,1927;0,164225
400,1569;0,166462
401,1211;0,167632
402,0854;0,167941
403,0496;0,167671
404,0138;0,167037
404,9781;0,166194
405,9423;0,165269
406,9065;0,164391
407,8708;0,16371
408,8350;0,1634
409,7992;0,163619
410,7635;0,164414
411,7277;0,16562
412,6919;0,166865
413,6562;0,167743
414,6204;0,168013
415,5846;0,167705
416,5489;0,167163
417,5131;0,167036
418,4773;0,167991
419,4416;0,170033
420,4058;0,172293
421,3700;0,173877
422,3343;0,174516
423,2985;0,174425
424,2627;0,173965
425,2270;0,173455
426,1912;0,173072
427,1554;0,172822
428,1197;0,172599
429,0839;0,172295
430,0481;0,171878
431,0124;0,171402
431,9766;0,170959
432,9408;0,170612
433,9051;0,170359
434,8693;0,170134
435,8335;0,16986
436,7978;0,16949
437,7620;0,169023
438,7262;0,168491
439,6905;0,167925
440,6547;0,167356
441,6189;0,166828
442,5832;0,166406
443,5474;0,166171
444,5116;0,166163
445,4759;0,16634
446,4401;0,166573
447,4043;0,166695
448,3686;0,16657
449,3328;0,166158
450,2970;0,165526
451,2613;0,164814
452,2255;0,164146
453,1897;0,163565
454,1540;0,163014
455,1182;0,162405
456,0824;0,1617
457,0467;0,160983
458,0109;0,160436
458,9751;0,160221
459,9394;0,160358
460,9036;0,160729
461,8678;0,161172
462,8321;0,161547
463,7963;0,161752
464,7605;0,16171
465,7248;0,161377
466,6890;0,16076
467,6532;0,159925
468,6175;0,158983
469,5817;0,158055
470,5459;0,157258
471,5102;0,156686
472,4744;0,156404
473,4386;0,156433
474,4029;0,156747
475,3671;0,157273
476,3313;0,157897
477,2956;0,158484
478,2598;0,158901
479,2240;0,159077
480,1883;0,159045
481,1525;0,158935
482,1167;0,158917
483,0810;0,159112
484,0452;0,159523
485,0094;0,160049
485,9737;0,160558
486,9379;0,160975
487,9021;0,161302
488,8664;0,161579
489,8306;0,161831
490,7948;0,162042
491,7591;0,162182
492,7233;0,162257
493,6875;0,162335
494,6518;0,162516
495,6160;0,162867
496,5802;0,163371
497,5445;0,163932
498,5087;0,164422
499,4729;0,164738
500,4372;0,164859
501,4014;0,164855
502,3656;0,164854
503,3299;0,164972
504,2941;0,165251
505,2583;0,165658
506,2226;0,166126
507,1868;0,166602
508,1510;0,167078
509,1153;0,167583
510,0795;0,168149
511,0437;0,168778
512,0080;0,169435
512,9722;0,170073
513,9365;0,170671
514,9007;0,171259
515,8649;0,171901
516,8292;0,172638
517,7934;0,173428
518,7576;0,174134
519,7219;0,174604
520,6861;0,174766
521,6503;0,174671
522,6146;0,174462
523,5788;0,174296
524,5430;0,174278
525,5073;0,17442
526,4715;0,174644
527,4357;0,174852
528,4000;0,175002
529,3642;0,175127
530,3284;0,175286
531,2927;0,175492
532,2569;0,175674
533,2211;0,175698
534,1854;0,175444
535,1496;0,174897
536,1138;0,174184
537,0781;0,173526
538,0423;0,173125
539,0065;0,173067
539,9708;0,173278
540,9350;0,173579
541,8992;0,173778
542,8635;0,173769
543,8277;0,173562
544,7919;0,173261
545,7562;0,173006
546,7204;0,172905
547,6846;0,173001
548,6489;0,173271
549,6131;0,173653
550,5773;0,17408
551,5416;0,174498
552,5058;0,174885
553,4700;0,175248
554,4343;0,17561
555,3985;0,17599
556,3627;0,176381
557,3270;0,176729
558,2912;0,176952
559,2554;0,176962
560,2197;0,17671
561,1839;0,176212
562,1481;0,17555
563,1124;0,174847
564,0766;0,174219
565,0408;0,173739
566,0051;0,173416
566,9693;0,173209
567,9335;0,173054
568,8978;0,172902
569,8620;0,172736
570,8262;0,172576
571,7905;0,172452
572,7547;0,172381
573,7189;0,172355
574,6832;0,172338
575,6474;0,17229
576,6116;0,172173
577,5759;0,171973
578,5401;0,171697
579,5043;0,171371
580,4686;0,171035
581,4328;0,170732
582,3970;0,170498
583,3613;0,170341
584,3255;0,170241
585,2897;0,170155
586,2540;0,17004
587,2182;0,169881
588,1824;0,169693
589,1467;0,169509
590,1109;0,169357
591,0751;0,169241
592,0394;0,16914
593,0036;0,169021
593,9678;0,168856
594,9321;0,168638
595,8963;0,168371
596,8605;0,168066
597,8248;0,167737
598,7890;0,167394
599,7532;0,167044
600,7175;0,166692
601,6817;0,166342
602,6459;0,165999
603,6102;0,165668
604,5744;0,16535
605,5386;0,165025
606,5029;0,164652
607,4671;0,16418
608,4313;0,163576
609,3956;0,162856
610,3598;0,162084
611,3240;0,161341
612,2883;0,160683
613,2525;0,160112
614,2167;0,159576
615,1810;0,159004
616,1452;0,158343
617,1094;0,157585
618,0737;0,156754
619,0379;0,155887
620,0021;0,155009
620,9664;0,154129
621,9306;0,153248
622,8948;0,15237
623,8591;0,151505
624,8233;0,150666
625,7875;0,149855
626,7518;0,149084
627,7160;0,14837
628,6802;0,147732
629,6445;0,147178
630,6087;0,146693
631,5729;0,14624
632,5372;0,145774
633,5014;0,145266
634,4656;0,144715
635,4299;0,144148
636,3941;0,143599
637,3583;0,143093
638,3226;0,142634
639,2868;0,142215
640,2510;0,141822
641,2153;0,14145
642,1795;0,141099
643,1437;0,140769
644,1080;0,140456
645,0722;0,140148
646,0364;0,139828
647,0007;0,139484
647,9649;0,139114
648,9291;0,138729
649,8934;0,138357
650,8576;0,138028
651,8218;0,137773
652,7861;0,137617
653,7503;0,137573
654,7145;0,137647
655,6788;0,13783
656,6430;0,138103
657,6072;0,13843
658,5715;0,138758
659,5357;0,139017
660,4999;0,139143
661,4642;0,139116
662,4284;0,138982
663,3926;0,138831
664,3569;0,138746
665,3211;0,138746
666,2853;0,138739
667,2496;0,138493
668,2138;0,137747
669,1780;0,1365
670,1423;0,135045
671,1065;0,133625
672,0707;0,13229
673,0350;0,13099
673,9992;0,12967
674,9634;0,128315
675,9277;0,126959
676,8919;0,125654
677,8561;0,124432
678,8204;0,123284
679,7846;0,122196
680,7488;0,121168
681,7131;0,120222
682,6773;0,119378
683,6415;0,118646
684,6058;0,11802
685,5700;0,117488
686,5342;0,117036
687,4985;0,116644
688,4627;0,116287
689,4269;0,115943
690,3912;0,115597
691,3554;0,115242
692,3196;0,114876
693,2839;0,114504
694,2481;0,114133
695,2123;0,113778
696,1766;0,113452
697,1408;0,113164
698,1050;0,112904
699,0693;0,112647
700,0335;0,112363
700,9977;0,112029
701,9620;0,111641
702,9262;0,111214
703,8904;0,110768
704,8547;0,110317
705,8189;0,109863
706,7831;0,109396
707,7474;0,108912
708,7116;0,108414
709,6758;0,107919
710,6401;0,107446
711,6043;0,107004
712,5685;0,106587
713,5328;0,106176
714,4970;0,105749
715,4612;0,105382
716,4255;0,104869
717,3897;0,104312
718,3539;0,103713
719,3182;0,103074
720,2824;0,102394
721,2466;0,101679
722,2109;0,100942
723,1751;0,100202
724,1393;0,0994791
725,1036;0,098789
726,0678;0,0981413
727,0320;0,0975347
727,9963;0,0969553
728,9605;0,0963801
729,9247;0,095786
730,8890;0,0951621
731,8532;0,094517
732,8174;0,0938776
733,7817;0,0932785
734,7459;0,0927465
735,7101;0,0922896
736,6744;0,0918944
737,6386;0,0915346
738,6028;0,0911833
739,5671;0,0908241
740,5313;0,0904537
741,4955;0,090078
742,4598;0,0897034
743,4240;0,0893304
744,3882;0,0889531
745,3525;0,0885637
746,3167;0,0881578
747,2809;0,0877372
748,2452;0,0873085
749,2094;0,08688
750,1736;0,0864582
751,1379;0,0860475
752,1021;0,0856492
753,0663;0,0852623
754,0306;0,0848831
754,9948;0,0845071
755,9590;0,0841314
756,9233;0,0837572
757,8875;0,0833907
758,8517;0,0830398
759,8160;0,0827091
760,7802;0,0823964
761,7444;0,0820934
762,7087;0,0817897
763,6729;0,0814784
764,6371;0,0811593
765,6014;0,0808373
766,5656;0,0805169
767,5298;0,0801969
768,4941;0,0798692
769,4583;0,0795228
770,4225;0,0791521
771,3868;0,0787636
772,3510;0,0783766
773,3152;0,0780159
774,2795;0,0776993
775,2437;0,0774277
776,2079;0,0771832
777,1722;0,0769366
778,1364;0,07666
779,1006;0,0763385
780,0649;0,0759729
781,0291;0,0755773
781,9933;0,0751709
782,9576;0,0747713
783,9218;0,074391
784,8860;0,0740366
785,8503;0,0737114
786,8145;0,0734176
787,7787;0,0731574
788,7430;0,0729318
789,7072;0,0727376
790,6714;0,0725656
791,6357;0,0724009
792,5999;0,072228
793,5641;0,0720379
794,5284;0,0718316
795,4926;0,0716195
796,4568;0,0714147
797,4211;0,0712264
798,3853;0,0710569
799,3495;0,0709034
800,3138;0,0707624
801,2780;0,0706325
802,2422;0,0705124
803,2065;0,0703981
804,1707;0,0702818
805,1349;0,070154
806,0992;0,0700091
807,0634;0,0698484
808,0276;0,0696787
808,9919;0,0695071
809,9561;0,0693371
810,9203;0,0691677
811,8846;0,0689988
812,8488;0,0688358
813,8130;0,0686904
814,7773;0,0685748
815,7415;0,0684916
816,7057;0,0684286
817,6700;0,068361
818,6342;0,068263
819,5984;0,0681215
820,5627;0,0679443
821,5269;0,067757
822,4911;0,0675912
823,4554;0,0674703
824,4196;0,0674004
825,3839;0,0673697
826,3481;0,0673558
827,3123;0,0673357
828,2766;0,0672938
829,2408;0,0672234
830,2050;0,0671243
831,1693;0,0669972
832,1335;0,0668397
833,0977;0,0666484
834,0620;0,0664245
835,0262;0,0661797
835,9904;0,0659363
836,9547;0,0657187
837,9189;0,0655401
838,8831;0,0653933
839,8474;0,0652528
840,8116;0,0650885
841,7758;0,0648834
842,7401;0,0646417
843,7043;0,0643835
844,6685;0,0641311
845,6328;0,0638968
846,5970;0,0636814
847,5612;0,0634825
848,5255;0,0633033
849,4897;0,063153
850,4539;0,0630397
851,4182;0,0629621
852,3824;0,0629086
853,3466;0,0628648
854,3109;0,0628233
855,2751;0,0627865
856,2393;0,0627611
857,2036;0,0627507
858,1678;0,062753
859,1320;0,0627643
860,0963;0,0627857
861,0605;0,0628243
862,0247;0,0628879
862,9890;0,0629773
863,9532;0,0630847
864,9174;0,0631994
865,8817;0,0633168
866,8459;0,063443
867,8101;0,0635894
868,7744;0,0637634
869,7386;0,0639606
870,7028;0,0641638
871,6671;0,0643497
872,6313;0,0644955
873,5955;0,0645839
874,5598;0,0646049
875,5240;0,0645583
876,4882;0,064457
877,4525;0,0643302
878,4167;0,0642196
879,3809;0,0641691
880,3452;0,0642106
881,3094;0,064355
882,2736;0,0645936
883,2379;0,0649102
884,2021;0,0652949
885,1663;0,0657519
886,1306;0,0662954
887,0948;0,066938
888,0590;0,0676783
889,0233;0,068497
889,9875;0,0693622
890,9517;0,0702378
891,9160;0,0710908
892,8802;0,0718911
893,8444;0,0726088
894,8087;0,0732116
895,7729;0,0736685
896,7371;0,0739566
897,7014;0,0740675
898,6656;0,0740081
899,6298;0,0737972
900,5941;0,0734584
901,5583;0,0730166
902,5225;0,0724972
903,4868;0,0719275
904,4510;0,0713378
905,4152;0,0707603
906,3795;0,0702256
907,3437;0,0697597
908,3079;0,0693801
909,2722;0,0690945
910,2364;0,0689008
911,2007;0,0687884
912,1649;0,0687433
913,1292;0,0687521
914,0934;0,0688059
915,0576;0,0689007
916,0219;0,069035
916,9861;0,0692065
917,9503;0,0694104
918,9146;0,0696391
919,8788;0,0698832
920,8430;0,0701323
921,8073;0,0703754
922,7715;0,0706016
923,7357;0,0708022
924,7000;0,0709727
925,6642;0,0711142
926,6284;0,0712329
927,5927;0,0713373
928,5569;0,0714357
929,5211;0,0715341
930,4854;0,0716356
931,4496;0,0717409
932,4138;0,0718506
933,3781;0,0719664
934,3423;0,0720938
935,3065;0,0722421
936,2708;0,0724235
937,2350;0,07265
938,1992;0,0729297
939,1635;0,0732663
940,1277;0,0736598
941,0919;0,0741097
942,0562;0,0746159
943,0204;0,0751792
943,9846;0,0758
944,9489;0,0764787
945,9131;0,0772174
946,8773;0,0780223
947,8416;0,0789028
948,8058;0,0798687
949,7700;0,0809248
950,7343;0,0820693
951,6985;0,0832963
952,6627;0,0846016
953,6270;0,0859869
954,5912;0,0874596
955,5554;0,0890254
956,5197;0,0906798
957,4839;0,092404
958,4481;0,0941681
959,4124;0,0959425
960,3766;0,09771
961,3408;0,0994715
962,3051;0,101242
963,2693;0,103038
964,2335;0,104869
965,1978;0,106727
966,1620;0,108598
967,1262;0,110472
968,0905;0,112355
969,0547;0,114272
970,0189;0,11626
970,9832;0,118362
971,9474;0,12061
972,9116;0,123023
973,8759;0,125606
974,8401;0,12836
975,8043;0,131285
976,7686;0,134383
977,7328;0,137652
978,6970;0,141075
979,6613;0,144604
980,6255;0,148159
981,5897;0,151629
982,5540;0,154903
983,5182;0,157885
984,4824;0,160523
985,4467;0,16281
986,4109;0,164777
987,3751;0,166476
988,3394;0,16796
989,3036;0,169274
990,2678;0,170444
991,2321;0,171486
992,1963;0,172405
993,1605;0,173211
994,1248;0,17392
995,0890;0,174562
996,0532;0,175172
997,0175;0,17578
997,9817;0,176404
998,9459;0,177047
999,9102;0,177708
1000,8744;0,17839
1001,8386;0,179112
1002,8029;0,179908
1003,7671;0,180816
1004,7313;0,181875
1005,6956;0,183115
1006,6598;0,184562
1007,6240;0,186231
1008,5883;0,188124
1009,5525;0,190223
1010,5167;0,192487
1011,4810;0,194856
1012,4452;0,197256
1013,4094;0,199617
1014,3737;0,201878
1015,3379;0,203989
1016,3021;0,205914
1017,2664;0,207627
1018,2306;0,209117
1019,1948;0,21039
1020,1591;0,211478
1021,1233;0,212428
1022,0875;0,213291
1023,0518;0,214112
1024,0160;0,214912
1024,9802;0,215692
1025,9445;0,216433
1026,9087;0,217109
1027,8729;0,217687
1028,8372;0,21813
1029,8014;0,218393
1030,7656;0,218421
1031,7299;0,218154
1032,6941;0,217539
1033,6583;0,216548
1034,6226;0,215196
1035,5868;0,21355
1036,5510;0,211718
1037,5153;0,209829
1038,4795;0,208011
1039,4437;0,206362
1040,4080;0,204936
1041,3722;0,203746
1042,3364;0,202768
1043,3007;0,201958
1044,2649;0,201255
1045,2291;0,200592
1046,1934;0,199901
1047,1576;0,19912
1048,1218;0,198194
1049,0861;0,197091
1050,0503;0,195797
1051,0145;0,194318
1051,9788;0,192675
1052,9430;0,190894
1053,9072;0,188999
1054,8715;0,187002
1055,8357;0,184898
1056,7999;0,182662
1057,7642;0,180256
1058,7284;0,177647
1059,6926;0,174821
1060,6569;0,171802
1061,6211;0,168652
1062,5853;0,165467
1063,5496;0,16235
1064,5138;0,159399
1065,4780;0,156685
1066,4423;0,154242
1067,4065;0,15207
1068,3707;0,150136
1069,3350;0,148392
1070,2992;0,146782
1071,2634;0,145252
1072,2277;0,143756
1073,1919;0,142258
1074,1561;0,140727
1075,1204;0,13914
1076,0846;0,137487
1077,0488;0,135772
1078,0131;0,134019
1078,9773;0,132265
1079,9415;0,130556
1080,9058;0,128937
1081,8700;0,127444
1082,8342;0,126102
1083,7985;0,124921
1084,7627;0,123892
1085,7269;0,122994
1086,6912;0,122195
1087,6554;0,121469
1088,6196;0,120804
1089,5839;0,120207
1090,5481;0,119707
1091,5123;0,119329
1092,4766;0,11909
1093,4408;0,118982
1094,4050;0,118981
1095,3693;0,119054
1096,3335;0,119178
1097,2977;0,119341
1098,2620;0,119542
1099,2262;0,119777
1100,1904;0,120033
1101,1547;0,120287
1102,1189;0,120505
1103,0831;0,120652
1104,0474;0,120697
1105,0116;0,120622
1105,9758;0,120422
1106,9401;0,120108
1107,9043;0,119699
1108,8685;0,119206
1109,8328;0,118625
1110,7970;0,117928
1111,7612;0,117082
1112,7255;0,116062
1113,6897;0,114878
1114,6539;0,113577
1115,6182;0,112237
1116,5824;0,110941
1117,5466;0,109752
1118,5109;0,108694
1119,4751;0,107753
1120,4393;0,106882
1121,4036;0,106015
1122,3678;0,10508
1123,3320;0,104015
1124,2963;0,102779
1125,2605;0,101356
1126,2247;0,0997637
1127,1890;0,0980412
1128,1532;0,0962406
1129,1174;0,094411
1130,0817;0,0925893
1131,0459;0,0907987
1132,0101;0,0890543
1132,9744;0,0873723
1133,9386;0,0857762
1134,9028;0,0842979
1135,8671;0,0829725
1136,8313;0,0818312
1137,7955;0,0808959
1138,7598;0,0801763
1139,7240;0,0796711
1140,6882;0,0793698
1141,6525;0,0792543
1142,6167;0,0793002
1143,5809;0,0794781
1144,5452;0,0797577
1145,5094;0,0801124
1146,4736;0,0805241
1147,4379;0,0809847
1148,4021;0,0814929
1149,3663;0,0820485
1150,3306;0,0826456
1151,2948;0,0832693
1152,2590;0,0838958
1153,2233;0,0844969
1154,1875;0,0850429
1155,1517;0,0855027
1156,1160;0,0858403
1157,0802;0,086011
1158,0444;0,0859606
1159,0087;0,0856311
1159,9729;0,0849704
1160,9371;0,0839444
1161,9014;0,0825451
1162,8656;0,0807932
1163,8298;0,0787358
1164,7941;0,0764404
1165,7583;0,0739887
1166,7225;0,0714693
1167,6868;0,06897
1168,6510;0,0665677
1169,6152;0,0643201
1170,5795;0,0622599
1171,5437;0,0603972
1172,5079;0,0587274
1173,4722;0,0572405
1174,4364;0,0559284
1175,4006;0,0547855
1176,3649;0,053805
1177,3291;0,052975
1178,2933;0,052276
1179,2576;0,0516845
1180,2218;0,051178
1181,1860;0,0507401
1182,1503;0,050363
1183,1145;0,0500472
1184,0787;0,0497984
1185,0430;0,0496235
1186,0072;0,0495274
1186,9714;0,0495117
1187,9357;0,0495746
1188,8999;0,0497136
1189,8641;0,0499278
1190,8284;0,0502201
1191,7926;0,0505959
1192,7568;0,0510603
1193,7211;0,0516137
1194,6853;0,0522491
1195,6495;0,052952
1196,6138;0,0537025
1197,5780;0,0544795
1198,5422;0,0552649
1199,5065;0,0560252
1200,4707;0,0567962
1201,4349;0,057552
1202,3992;0,0582915
1203,3634;0,0590142
1204,3276;0,0597186
1205,2919;0,060403
1206,2561;0,0610671
1207,2203;0,061716
1208,1846;0,0623622
1209,1488;0,0630271
1210,1130;0,0637375
1211,0773;0,0645191
1212,0415;0,0653882
1213,0057;0,0663461
1213,9700;0,0673784
1214,9342;0,0684598
1215,8984;0,0695618
1216,8627;0,0706594
1217,8269;0,0717348
1218,7911;0,0727781
1219,7554;0,0737849
1220,7196;0,0747536
1221,6838;0,0756837
1222,6481;0,0765748
1223,6123;0,077426
1224,5765;0,0782367
1225,5408;0,0790068
1226,5050;0,0797374
1227,4692;0,0804305
1228,4335;0,0810876
1229,3977;0,081708
1230,3619;0,0822874
1231,3262;0,082818
1232,2904;0,0832917
1233,2546;0,0837029
1234,2189;0,0840514
1235,1831;0,0843419
1236,1473;0,0845811
1237,1116;0,0847746
1238,0758;0,0849245
1239,0400;0,0850302
1240,0043;0,0850893
1240,9685;0,0850991
1241,9327;0,0850569
1242,8970;0,0849585
1243,8612;0,0847988
1244,8254;0,0845728
1245,7897;0,0842789
1246,7539;0,0839207
1247,7181;0,083507
1248,6824;0,083049
1249,6466;0,0825572
1250,6108;0,0820394
1251,5751;0,081502
1252,5393;0,0809524
1253,5035;0,0803991
1254,4678;0,0798493
1255,4320;0,079304
1256,3962;0,0787552
1257,3605;0,0781875
1258,3247;0,0775842
1259,2889;0,0769348
1260,2532;0,0762387
1261,2174;0,0755033
1262,1816;0,0747383
1263,1459;0,0739512
1264,1101;0,0731451
1265,0743;0,0723209
1266,0386;0,0714793
1267,0028;0,0706211
1267,9670;0,0697466
1268,9313;0,068856
1269,8955;0,0679508
1270,8597;0,0670354
1271,8240;0,0661171
1272,7882;0,0652041
1273,7524;0,0643033
1274,7167;0,0634197
1275,6809;0,0625578
1276,6451;0,0617234
1277,6094;0,060922
1278,5736;0,0601559
1279,5378;0,0594214
1280,5021;0,0587095
1281,4663;0,0580103
1282,4305;0,0573195
1283,3948;0,0566415
1284,3590;0,0559889
1285,3232;0,0553791
1286,2875;0,0548293
1287,2517;0,0543537
1288,2159;0,0539614
1289,1802;0,053656
1290,1444;0,0534354
1291,1086;0,0532935
1292,0729;0,0532229
1293,0371;0,0532173
1294,0013;0,0532736
1294,9656;0,0533911
1295,9298;0,0535707
1296,8940;0,0538126
1297,8583;0,0541157
1298,8225;0,0544774
1299,7867;0,0548927
1300,7510;0,0553549
1301,7152;0,0558562
1302,6794;0,0563896
1303,6437;0,0569504
1304,6079;0,057537
1305,5721;0,0581489
1306,5364;0,058783
1307,5006;0,0594334
1308,4648;0,0600919
1309,4291;0,060751
1310,3933;0,0614042
1311,3575;0,0620431
1312,3218;0,0626535
1313,2860;0,063214
1314,2502;0,0636991
1315,2145;0,0640859
1316,1787;0,0643592
1317,1429;0,0645142
1318,1072;0,0645575
1319,0714;0,0645069
1320,0356;0,0643879
1320,9999;0,0642281
1321,9641;0,0640504
1322,9283;0,0638701
1323,8926;0,0636957
1324,8568;0,0635317
1325,8210;0,0633815
1326,7853;0,0632483
1327,7495;0,0631333
1328,7137;0,0630332
1329,6780;0,0629376
1330,6422;0,0628305
1331,6064;0,0626942
1332,5707;0,0625141
1333,5349;0,0622808
1334,4991;0,0619867
1335,4634;0,0616226
1336,4276;0,0611783
1337,3918;0,0606533
1338,3561;0,0600727
1339,3203;0,0594934
1340,2845;0,0589821
1341,2488;0,0585797
1342,2130;0,0582848
1343,1772;0,0580684
1344,1415;0,057899
1345,1057;0,0577597
1346,0699;0,0576534
1347,0342;0,0575983
1347,9984;0,057618
1348,9626;0,0577301
1349,9269;0,0579373
1350,8911;0,0582268
1351,8553;0,0585771
1352,8196;0,0589687
1353,7838;0,0593939
1354,7480;0,0598582
1355,7123;0,0603711
1356,6765;0,0609346
1357,6407;0,0615368
1358,6050;0,0621578
