TITLE;
DATA TYPE;INFRARED SPECTRUM
ORIGIN;JASCO
OWNER;
DATE;25/03/18
TIME;10:29:09
SPECTROMETER/DATA SYSTEM;
LOCALE;9226
RESOLUTION;
DELTAX;0,964233
XUNITS;1/CM
YUNITS;ABSORBANCE
FIRSTX;  399,1927
LASTX; 4000,6047
NPOINTS;    3736
FIRSTY;     0,17977
MAXY;     0,20306
MINY;     0,00489
XYDATA
399,1927;0,17977
400,1569;0,178456
401,1211;0,177779
402,0854;0,177751
403,0496;0,178116
404,0138;0,17853
404,9781;0,178698
405,9423;0,178465
406,9065;0,177842
407,8708;0,176941
408,8350;0,175895
409,7992;0,174843
410,7635;0,173973
411,7277;0,173518
412,6919;0,173645
413,6562;0,174347
414,6204;0,175449
415,5846;0,176707
416,5489;0,177902
417,5131;0,178882
418,4773;0,179579
419,4416;0,179988
420,4058;0,180099
421,3700;0,17989
422,3343;0,179384
423,2985;0,178692
424,2627;0,17801
425,2270;0,177529
426,1912;0,177313
427,1554;0,177244
428,1197;0,177094
429,0839;0,176687
430,0481;0,176005
431,0124;0,175187
431,9766;0,174415
432,9408;0,173794
433,9051;0,173289
434,8693;0,17277
435,8335;0,172124
436,7978;0,171344
437,7620;0,170551
438,7262;0,169931
439,6905;0,169661
440,6547;0,169838
441,6189;0,17042
442,5832;0,171186
443,5474;0,171792
444,5116;0,171921
445,4759;0,171452
446,4401;0,170497
447,4043;0,169302
448,3686;0,168115
449,3328;0,167119
450,2970;0,166407
451,2613;0,166003
452,2255;0,165878
453,1897;0,165957
454,1540;0,166129
455,1182;0,166257
456,0824;0,166202
457,0467;0,165865
458,0109;0,165248
458,9751;0,16448
459,9394;0,163746
460,9036;0,163194
461,8678;0,162881
462,8321;0,162779
463,7963;0,162783
464,7605;0,162747
465,7248;0,162532
466,6890;0,162083
467,6532;0,161465
468,6175;0,160822
469,5817;0,160299
470,5459;0,159968
471,5102;0,159797
472,4744;0,159685
473,4386;0,159551
474,4029;0,159392
475,3671;0,159277
476,3313;0,159285
477,2956;0,159451
478,2598;0,159749
479,2240;0,160099
480,1883;0,160394
481,1525;0,160543
482,1167;0,160515
483,0810;0,160365
484,0452;0,160239
485,0094;0,160309
485,9737;0,160678
486,9379;0,161322
487,9021;0,162092
488,8664;0,162781
489,8306;0,163204
490,7948;0,163273
491,7591;0,163041
492,7233;0,162689
493,6875;0,162444
494,6518;0,162479
495,6160;0,162847
496,5802;0,163476
497,5445;0,164213
498,5087;0,164883
499,4729;0,165347
500,4372;0,165536
501,4014;0,165479
502,3656;0,165285
503,3299;0,165092
504,2941;0,165006
505,2583;0,165075
506,2226;0,165303
507,1868;0,165673
508,1510;0,166166
509,1153;0,166753
510,0795;0,167385
511,0437;0,168001
512,0080;0,168545
512,9722;0,168982
513,9365;0,169311
514,9007;0,169559
515,8649;0,169765
516,8292;0,169965
517,7934;0,17017
518,7576;0,170373
519,7219;0,170556
520,6861;0,170706
521,6503;0,170824
522,6146;0,170916
523,5788;0,170991
524,5430;0,171048
525,5073;0,171073
526,4715;0,171044
527,4357;0,170947
528,4000;0,170786
529,3642;0,170594
530,3284;0,170423
531,2927;0,170324
532,2569;0,170319
533,2211;0,17038
534,1854;0,170436
535,1496;0,170404
536,1138;0,170242
537,0781;0,169974
538,0423;0,169692
539,0065;0,169498
539,9708;0,169453
540,9350;0,169535
541,8992;0,169653
542,8635;0,169695
543,8277;0,169587
544,7919;0,16933
545,7562;0,169001
546,7204;0,168712
547,6846;0,16856
548,6489;0,168588
549,6131;0,168778
550,5773;0,169071
551,5416;0,169394
552,5058;0,169686
553,4700;0,169911
554,4343;0,170065
555,3985;0,170169
556,3627;0,170253
557,3270;0,170336
558,2912;0,170396
559,2554;0,170375
560,2197;0,170197
561,1839;0,169807
562,1481;0,16921
563,1124;0,168483
564,0766;0,167751
565,0408;0,167135
566,0051;0,166707
566,9693;0,166467
567,9335;0,166352
568,8978;0,166283
569,8620;0,166202
570,8262;0,166105
571,7905;0,166021
572,7547;0,165982
573,7189;0,165991
574,6832;0,166013
575,6474;0,165992
576,6116;0,165885
577,5759;0,165681
578,5401;0,165414
579,5043;0,165134
580,4686;0,16488
581,4328;0,164664
582,3970;0,164463
583,3613;0,164243
584,3255;0,163977
585,2897;0,163673
586,2540;0,16337
587,2182;0,163128
588,1824;0,162997
589,1467;0,162991
590,1109;0,163078
591,0751;0,163185
592,0394;0,163231
593,0036;0,163161
593,9678;0,162966
594,9321;0,162678
595,8963;0,162342
596,8605;0,161994
597,8248;0,161657
598,7890;0,161342
599,7532;0,161056
600,7175;0,160805
601,6817;0,160584
602,6459;0,160367
603,6102;0,160116
604,5744;0,159783
605,5386;0,159337
606,5029;0,158773
607,4671;0,158116
608,4313;0,157414
609,3956;0,156718
610,3598;0,15607
611,3240;0,155487
612,2883;0,154958
613,2525;0,154452
614,2167;0,153926
615,1810;0,153336
616,1452;0,152655
617,1094;0,151881
618,0737;0,151045
619,0379;0,150191
620,0021;0,149354
620,9664;0,148547
621,9306;0,147764
622,8948;0,146997
623,8591;0,14625
624,8233;0,145542
625,7875;0,144892
626,7518;0,144311
627,7160;0,143788
628,6802;0,143296
629,6445;0,142811
630,6087;0,142319
631,5729;0,141817
632,5372;0,141305
633,5014;0,14078
634,4656;0,140241
635,4299;0,139695
636,3941;0,139159
637,3583;0,138663
638,3226;0,138232
639,2868;0,137874
640,2510;0,137575
641,2153;0,137306
642,1795;0,137034
643,1437;0,136737
644,1080;0,136412
645,0722;0,13607
646,0364;0,135722
647,0007;0,135373
647,9649;0,135011
648,9291;0,134622
649,8934;0,134211
650,8576;0,133812
651,8218;0,133487
652,7861;0,133295
653,7503;0,133267
654,7145;0,13339
655,6788;0,133616
656,6430;0,133882
657,6072;0,134135
658,5715;0,134339
659,5357;0,134463
660,4999;0,134486
661,4642;0,134412
662,4284;0,134283
663,3926;0,134163
664,3569;0,134102
665,3211;0,134102
666,2853;0,134063
667,2496;0,133744
668,2138;0,132876
669,1780;0,131518
670,1423;0,130073
671,1065;0,128805
672,0707;0,127694
673,0350;0,126617
673,9992;0,125477
674,9634;0,124242
675,9277;0,122953
676,8919;0,121679
677,8561;0,120472
678,8204;0,119343
679,7846;0,118293
680,7488;0,117338
681,7131;0,116507
682,6773;0,115814
683,6415;0,11524
684,6058;0,114745
685,5700;0,11429
686,5342;0,113853
687,4985;0,113437
688,4627;0,11305
689,4269;0,112699
690,3912;0,112382
691,3554;0,112089
692,3196;0,111811
693,2839;0,111539
694,2481;0,111268
695,2123;0,110991
696,1766;0,110705
697,1408;0,110401
698,1050;0,110079
699,0693;0,109741
700,0335;0,109392
700,9977;0,109037
701,9620;0,108672
702,9262;0,108289
703,8904;0,107874
704,8547;0,10742
705,8189;0,10693
706,7831;0,106421
707,7474;0,105916
708,7116;0,105436
709,6758;0,104992
710,6401;0,104581
711,6043;0,104185
712,5685;0,103778
713,5328;0,103336
714,4970;0,102847
715,4612;0,102329
716,4255;0,101764
717,3897;0,10119
718,3539;0,100617
719,3182;0,100036
720,2824;0,0994257
721,2466;0,0987672
722,2109;0,0980613
723,1751;0,0973312
724,1393;0,0966124
725,1036;0,0959364
726,0678;0,0953179
727,0320;0,0947515
727,9963;0,0942169
728,9605;0,0936903
729,9247;0,093155
730,8890;0,0926062
731,8532;0,0920491
732,8174;0,0914945
733,7817;0,0909555
734,7459;0,0904466
735,7101;0,0899815
736,6744;0,0895709
737,6386;0,0892177
738,6028;0,0889136
739,5671;0,0886406
740,5313;0,0883744
741,4955;0,088091
742,4598;0,0877714
743,4240;0,0874048
744,3882;0,0869915
745,3525;0,0865443
746,3167;0,086087
747,2809;0,0856479
748,2452;0,0852492
749,2094;0,0848964
750,1736;0,0845762
751,1379;0,0842626
752,1021;0,0839297
753,0663;0,0835633
754,0306;0,0831638
754,9948;0,0827414
755,9590;0,0823087
756,9233;0,0818747
757,8875;0,0814453
758,8517;0,0810266
759,8160;0,0806276
760,7802;0,0802591
761,7444;0,0799289
762,7087;0,079637
763,6729;0,0793731
764,6371;0,0791187
765,6014;0,0788533
766,5656;0,0785613
767,5298;0,0782373
768,4941;0,0778879
769,4583;0,0775279
770,4225;0,0771753
771,3868;0,0768452
772,3510;0,0765457
773,3152;0,0762767
774,2795;0,0760293
775,2437;0,075788
776,2079;0,075534
777,1722;0,0752496
778,1364;0,0749236
779,1006;0,0745547
780,0649;0,0741525
781,0291;0,0737346
781,9933;0,0733224
782,9576;0,0729363
783,9218;0,0725907
784,8860;0,0722905
785,8503;0,0720298
786,8145;0,0717939
787,7787;0,0715641
788,7430;0,0713246
789,7072;0,0710674
790,6714;0,0707944
791,6357;0,0705144
792,5999;0,0702392
793,5641;0,0699789
794,5284;0,0697407
795,4926;0,0695278
796,4568;0,0693412
797,4211;0,0691793
798,3853;0,0690387
799,3495;0,0689133
800,3138;0,0687953
801,2780;0,0686748
802,2422;0,0685416
803,2065;0,0683863
804,1707;0,0682031
805,1349;0,067992
806,0992;0,0677606
807,0634;0,0675225
808,0276;0,067294
808,9919;0,0670893
809,9561;0,0669154
810,9203;0,0667708
811,8846;0,0666471
812,8488;0,0665342
813,8130;0,066425
814,7773;0,0663186
815,7415;0,0662182
816,7057;0,0661263
817,6700;0,0660392
818,6342;0,0659463
819,5984;0,0658349
820,5627;0,0656979
821,5269;0,0655394
822,4911;0,0653745
823,4554;0,0652214
824,4196;0,0650923
825,3839;0,064988
826,3481;0,0648988
827,3123;0,0648114
828,2766;0,0647153
829,2408;0,0646058
830,2050;0,0644819
831,1693;0,0643434
832,1335;0,064188
833,0977;0,0640123
834,0620;0,0638149
835,0262;0,0635986
835,9904;0,063371
836,9547;0,0631415
837,9189;0,0629176
838,8831;0,0627017
839,8474;0,06249
840,8116;0,0622753
841,7758;0,0620517
842,7401;0,0618186
843,7043;0,0615814
844,6685;0,0613487
845,6328;0,061128
846,5970;0,0609226
847,5612;0,0607317
848,5255;0,0605538
849,4897;0,0603894
850,4539;0,0602422
851,4182;0,060117
852,3824;0,0600178
853,3466;0,0599452
854,3109;0,0598961
855,2751;0,0598639
856,2393;0,0598401
857,2036;0,0598168
858,1678;0,0597909
859,1320;0,0597655
860,0963;0,0597493
861,0605;0,0597517
862,0247;0,0597773
862,9890;0,0598243
863,9532;0,0598888
864,9174;0,059972
865,8817;0,0600848
866,8459;0,0602447
867,8101;0,0604651
868,7744;0,0607449
869,7386;0,0610643
870,7028;0,0613904
871,6671;0,0616882
872,6313;0,0619312
873,5955;0,062106
874,5598;0,0622124
875,5240;0,0622606
876,4882;0,0622696
877,4525;0,0622651
878,4167;0,0622765
879,3809;0,0623307
880,3452;0,0624465
881,3094;0,0626318
882,2736;0,0628872
883,2379;0,063212
884,2021;0,0636102
885,1663;0,0640912
886,1306;0,0646653
887,0948;0,0653361
888,0590;0,0660945
889,0233;0,0669174
889,9875;0,0677702
890,9517;0,0686131
891,9160;0,0694076
892,8802;0,0701221
893,8444;0,0707328
894,8087;0,0712237
895,7729;0,0715837
896,7371;0,0718041
897,7014;0,0718789
898,6656;0,0718058
899,6298;0,0715888
900,5941;0,0712401
901,5583;0,0707805
902,5225;0,070239
903,4868;0,0696507
904,4510;0,0690533
905,4152;0,0684832
906,3795;0,0679689
907,3437;0,067527
908,3079;0,0671618
909,2722;0,0668695
910,2364;0,0666459
911,2007;0,0664904
912,1649;0,0664061
913,1292;0,0663936
914,0934;0,0664454
915,0576;0,0665457
916,0219;0,0666772
916,9861;0,0668295
917,9503;0,0670042
918,9146;0,0672111
919,8788;0,0674579
920,8430;0,0677406
921,8073;0,0680416
922,7715;0,0683353
923,7357;0,068599
924,7000;0,0688208
925,6642;0,0690018
926,6284;0,0691521
927,5927;0,0692854
928,5569;0,0694142
929,5211;0,0695484
930,4854;0,069694
931,4496;0,069853
932,4138;0,0700234
933,3781;0,0702016
934,3423;0,0703868
935,3065;0,0705841
936,2708;0,0708057
937,2350;0,0710677
938,1992;0,0713843
939,1635;0,0717636
940,1277;0,0722065
941,0919;0,0727094
942,0562;0,0732692
943,0204;0,0738857
943,9846;0,0745613
944,9489;0,0752988
945,9131;0,0760984
946,8773;0,0769579
947,8416;0,0778738
948,8058;0,0788446
949,7700;0,0798728
950,7343;0,0809647
951,6985;0,0821284
952,6627;0,0833703
953,6270;0,0846926
954,5912;0,0860915
955,5554;0,0875575
956,5197;0,0890773
957,4839;0,0906362
958,4481;0,0922194
959,4124;0,0938132
960,3766;0,0954067
961,3408;0,0969927
962,3051;0,0985698
963,2693;0,100143
964,2335;0,10172
965,1978;0,103312
966,1620;0,104926
967,1262;0,106568
968,0905;0,108244
969,0547;0,109967
970,0189;0,111756
970,9832;0,113639
971,9474;0,115644
972,9116;0,11779
973,8759;0,120088
974,8401;0,122539
975,8043;0,125145
976,7686;0,127906
977,7328;0,13082
978,6970;0,133867
979,6613;0,137007
980,6255;0,140173
981,5897;0,143285
982,5540;0,146265
983,5182;0,149049
984,4824;0,151602
985,4467;0,153912
986,4109;0,155989
987,3751;0,15785
988,3394;0,159518
989,3036;0,161008
990,2678;0,162331
991,2321;0,163487
992,1963;0,164476
993,1605;0,165303
994,1248;0,165987
995,0890;0,166564
996,0532;0,167075
997,0175;0,167563
997,9817;0,16806
998,9459;0,168586
999,9102;0,169158
1000,8744;0,169788
1001,8386;0,170498
1002,8029;0,17131
1003,7671;0,172251
1004,7313;0,173349
1005,6956;0,17463
1006,6598;0,176118
1007,6240;0,177828
1008,5883;0,179755
1009,5525;0,181868
1010,5167;0,184108
1011,4810;0,186399
1012,4452;0,188668
1013,4094;0,190851
1014,3737;0,192901
1015,3379;0,194782
1016,3021;0,196459
1017,2664;0,197902
1018,2306;0,199086
1019,1948;0,20001
1020,1591;0,200703
1021,1233;0,201215
1022,0875;0,201608
1023,0518;0,201938
1024,0160;0,202238
1024,9802;0,202518
1025,9445;0,202766
1026,9087;0,202957
1027,8729;0,203063
1028,8372;0,203056
1029,8014;0,202903
1030,7656;0,202572
1031,7299;0,202027
1032,6941;0,201239
1033,6583;0,200198
1034,6226;0,198921
1035,5868;0,197464
1036,5510;0,195912
1037,5153;0,194364
1038,4795;0,19291
1039,4437;0,191613
1040,4080;0,190501
1041,3722;0,189571
1042,3364;0,188793
1043,3007;0,188123
1044,2649;0,187504
1045,2291;0,186874
1046,1934;0,186175
1047,1576;0,185363
1048,1218;0,184414
1049,0861;0,183324
1050,0503;0,182098
1051,0145;0,180744
1051,9788;0,179259
1052,9430;0,177644
1053,9072;0,175903
1054,8715;0,174049
1055,8357;0,172101
1056,7999;0,170069
1057,7642;0,167949
1058,7284;0,165722
1059,6926;0,163371
1060,6569;0,160899
1061,6211;0,158336
1062,5853;0,155745
1063,5496;0,153206
1064,5138;0,150794
1065,4780;0,148564
1066,4423;0,14654
1067,4065;0,144713
1068,3707;0,14305
1069,3350;0,141507
1070,2992;0,140037
1071,2634;0,138598
1072,2277;0,137158
1073,1919;0,135689
1074,1561;0,134171
1075,1204;0,132594
1076,0846;0,130958
1077,0488;0,129276
1078,0131;0,127576
1078,9773;0,125892
1079,9415;0,124263
1080,9058;0,122722
1081,8700;0,121299
1082,8342;0,120015
1083,7985;0,118877
1084,7627;0,117881
1085,7269;0,117006
1086,6912;0,116228
1087,6554;0,115526
1088,6196;0,114889
1089,5839;0,114326
1090,5481;0,113853
1091,5123;0,113487
1092,4766;0,113232
1093,4408;0,113078
1094,4050;0,113002
1095,3693;0,11298
1096,3335;0,112991
1097,2977;0,113021
1098,2620;0,113061
1099,2262;0,113106
1100,1904;0,11315
1101,1547;0,113187
1102,1189;0,113205
1103,0831;0,113189
1104,0474;0,113122
1105,0116;0,11299
1105,9758;0,112786
1106,9401;0,11251
1107,9043;0,112168
1108,8685;0,11176
1109,8328;0,111281
1110,7970;0,110708
1111,7612;0,110019
1112,7255;0,109196
1113,6897;0,108246
1114,6539;0,107202
1115,6182;0,106116
1116,5824;0,105047
1117,5466;0,10404
1118,5109;0,103113
1119,4751;0,102251
1120,4393;0,101416
1121,4036;0,100551
1122,3678;0,0996043
1123,3320;0,0985352
1124,2963;0,0973227
1125,2605;0,0959667
1126,2247;0,0944842
1127,1890;0,0929028
1128,1532;0,0912553
1129,1174;0,0895735
1130,0817;0,0878852
1131,0459;0,0862133
1132,0101;0,0845788
1132,9744;0,0830044
1133,9386;0,0815179
1134,9028;0,0801523
1135,8671;0,0789421
1136,8313;0,077917
1137,7955;0,0770961
1138,7598;0,0764851
1139,7240;0,0760772
1140,6882;0,0758565
1141,6525;0,0758012
1142,6167;0,0758869
1143,5809;0,0760882
1144,5452;0,076382
1145,5094;0,0767499
1146,4736;0,0771803
1147,4379;0,0776679
1148,4021;0,0782088
1149,3663;0,0787946
1150,3306;0,0794072
1151,2948;0,0800173
1152,2590;0,0805884
1153,2233;0,0810833
1154,1875;0,0814679
1155,1517;0,0817123
1156,1160;0,0817868
1157,0802;0,0816581
1158,0444;0,0812889
1159,0087;0,0806429
1159,9729;0,0796922
1160,9371;0,0784257
1161,9014;0,0768529
1162,8656;0,0750034
1163,8298;0,0729231
1164,7941;0,07067
1165,7583;0,0683104
1166,7225;0,0659149
1167,6868;0,063554
1168,6510;0,0612907
1169,6152;0,0591735
1170,5795;0,0572308
1171,5437;0,0554722
1172,5079;0,0538924
1173,4722;0,0524798
1174,4364;0,0512221
1175,4006;0,0501096
1176,3649;0,0491352
1177,3291;0,0482926
1178,2933;0,0475738
1179,2576;0,0469687
1180,2218;0,0464645
1181,1860;0,0460476
1182,1503;0,0457059
1183,1145;0,0454316
1184,0787;0,0452227
1185,0430;0,0450818
1186,0072;0,045013
1186,9714;0,0450183
1187,9357;0,0450962
1188,8999;0,0452434
1189,8641;0,0454584
1190,8284;0,0457443
1191,7926;0,0461081
1192,7568;0,0465567
1193,7211;0,0470914
1194,6853;0,0477053
1195,6495;0,0483829
1196,6138;0,0491044
1197,5780;0,0498495
1198,5422;0,0506006
1199,5065;0,0513171
1200,4707;0,0520479
1201,4349;0,0527582
1202,3992;0,0534472
1203,3634;0,0541164
1204,3276;0,0547689
1205,2919;0,0554076
1206,2561;0,0560361
1207,2203;0,0566609
1208,1846;0,0572935
1209,1488;0,0579515
1210,1130;0,0586554
1211,0773;0,0594233
1212,0415;0,0602652
1213,0057;0,0611799
1213,9700;0,0621558
1214,9342;0,0631756
1215,8984;0,0642207
1216,8627;0,0652741
1217,8269;0,0663203
1218,7911;0,0673458
1219,7554;0,0683385
1220,7196;0,0692889
1221,6838;0,070191
1222,6481;0,0710425
1223,6123;0,0718441
1224,5765;0,0725986
1225,5408;0,0733096
1226,5050;0,0739815
1227,4692;0,0746187
1228,4335;0,0752236
1229,3977;0,0757956
1230,3619;0,0763291
1231,3262;0,0768151
1232,2904;0,0772433
1233,2546;0,0776055
1234,2189;0,077899
1235,1831;0,0781277
1236,1473;0,0783008
1237,1116;0,0784307
1238,0758;0,0785293
1239,0400;0,078604
1240,0043;0,0786553
1240,9685;0,078676
1241,9327;0,0786537
1242,8970;0,0785756
1243,8612;0,0784328
1244,8254;0,078224
1245,7897;0,0779549
1246,7539;0,0776361
1247,7181;0,077279
1248,6824;0,0768937
1249,6466;0,0764873
1250,6108;0,0760644
1251,5751;0,075628
1252,5393;0,0751808
1253,5035;0,0747257
1254,4678;0,0742648
1255,4320;0,0737985
1256,3962;0,0733237
1257,3605;0,0728344
1258,3247;0,0723228
1259,2889;0,0717825
1260,2532;0,0712107
1261,2174;0,0706073
1262,1816;0,0699736
1263,1459;0,0693099
1264,1101;0,0686146
1265,0743;0,0678854
1266,0386;0,0671215
1267,0028;0,0663245
1267,9670;0,0654989
1268,9313;0,0646509
1269,8955;0,0637882
1270,8597;0,0629188
1271,8240;0,0620494
1272,7882;0,0611847
1273,7524;0,0603271
1274,7167;0,059479
1275,6809;0,058645
1276,6451;0,0578322
1277,6094;0,0570483
1278,5736;0,0562974
1279,5378;0,0555773
1280,5021;0,0548811
1281,4663;0,0542016
1282,4305;0,0535366
1283,3948;0,0528911
1284,3590;0,0522753
1285,3232;0,051701
1286,2875;0,0511795
1287,2517;0,0507204
1288,2159;0,0503326
1289,1802;0,0500234
1290,1444;0,0497967
1291,1086;0,0496517
1292,0729;0,0495833
1293,0371;0,0495838
1294,0013;0,0496462
1294,9656;0,0497655
1295,9298;0,0499389
1296,8940;0,0501645
1297,8583;0,0504411
1298,8225;0,0507676
1299,7867;0,0511416
1300,7510;0,0515589
1301,7152;0,0520134
1302,6794;0,0524973
1303,6437;0,0530042
1304,6079;0,0535308
1305,5721;0,0540773
1306,5364;0,0546448
1307,5006;0,0552327
1308,4648;0,0558368
1309,4291;0,0564501
1310,3933;0,0570638
1311,3575;0,0576669
1312,3218;0,0582447
1313,2860;0,0587782
1314,2502;0,0592457
1315,2145;0,0596263
1316,1787;0,0599043
1317,1429;0,0600733
1318,1072;0,0601396
1319,0714;0,0601218
1320,0356;0,0600465
1320,9999;0,0599395
1321,9641;0,0598191
1322,9283;0,0596939
1323,8926;0,0595669
1324,8568;0,0594404
1325,8210;0,0593183
1326,7853;0,0592055
1327,7495;0,0591037
1328,7137;0,0590085
1329,6780;0,0589089
1330,6422;0,0587904
1331,6064;0,0586402
1332,5707;0,0584512
1333,5349;0,0582204
1334,4991;0,0579441
1335,4634;0,0576124
1336,4276;0,05721
1337,3918;0,056728
1338,3561;0,0561818
1339,3203;0,0556212
1340,2845;0,0551139
1341,2488;0,0547086
1342,2130;0,0544129
1343,1772;0,0542026
1344,1415;0,0540461
1345,1057;0,0539231
1346,0699;0,0538312
1347,0342;0,0537845
1347,9984;0,0538041
1348,9626;0,0539076
1349,9269;0,0541002
1350,8911;0,0543722
1351,8553;0,0547037
1352,8196;0,0550752
1353,7838;0,055477
1354,7480;0,0559126
1355,7123;0,0563926
1356,6765;0,0569228
1357,6407;0,0574974
