TITLE;
DATA TYPE;INFRARED SPECTRUM
ORIGIN;JASCO
OWNER;
DATE;25/03/18
TIME;11:07:15
SPECTROMETER/DATA SYSTEM;
LOCALE;9226
RESOLUTION;
DELTAX;0,964233
XUNITS;1/CM
YUNITS;ABSORBANCE
FIRSTX;  399,1927
LASTX; 4000,6047
NPOINTS;    3736
FIRSTY;     0,16506
MAXY;     0,24398
MINY;     0,00812
XYDATA
399,1927;0,165062
400,1569;0,163997
401,1211;0,162881
402,0854;0,162049
403,0496;0,161508
404,0138;0,161147
404,9781;0,160884
405,9423;0,160715
406,9065;0,160684
407,8708;0,160827
408,8350;0,161133
409,7992;0,161563
410,7635;0,162087
411,7277;0,162682
412,6919;0,163299
413,6562;0,163845
414,6204;0,164207
415,5846;0,164319
416,5489;0,164252
417,5131;0,164298
418,4773;0,164908
419,4416;0,166268
420,4058;0,167967
421,3700;0,169377
422,3343;0,170153
423,2985;0,170296
424,2627;0,169999
425,2270;0,169527
426,1912;0,169125
427,1554;0,168946
428,1197;0,16904
429,0839;0,169399
430,0481;0,169992
431,0124;0,170762
431,9766;0,171602
432,9408;0,172361
433,9051;0,17289
434,8693;0,173112
435,8335;0,173054
436,7978;0,17282
437,7620;0,172522
438,7262;0,172227
439,6905;0,171959
440,6547;0,171731
441,6189;0,171563
442,5832;0,171471
443,5474;0,171426
444,5116;0,171358
445,4759;0,1712
446,4401;0,170952
447,4043;0,170696
448,3686;0,170549
449,3328;0,170591
450,2970;0,170812
451,2613;0,171101
452,2255;0,171304
453,1897;0,171293
454,1540;0,171017
455,1182;0,170495
456,0824;0,169795
457,0467;0,169011
458,0109;0,168254
458,9751;0,167645
459,9394;0,167277
460,9036;0,167207
461,8678;0,167438
462,8321;0,167916
463,7963;0,168515
464,7605;0,169044
465,7248;0,169293
466,6890;0,169118
467,6532;0,168498
468,6175;0,167527
469,5817;0,166378
470,5459;0,165264
471,5102;0,164415
472,4744;0,164015
473,4386;0,164111
474,4029;0,164576
475,3671;0,16517
476,3313;0,165646
477,2956;0,165837
478,2598;0,165695
479,2240;0,165287
480,1883;0,164766
481,1525;0,164316
482,1167;0,1641
483,0810;0,164225
484,0452;0,164719
485,0094;0,165524
485,9737;0,166515
486,9379;0,167539
487,9021;0,168459
488,8664;0,169173
489,8306;0,169611
490,7948;0,169744
491,7591;0,169602
492,7233;0,169282
493,6875;0,168936
494,6518;0,168711
495,6160;0,168693
496,5802;0,168867
497,5445;0,169136
498,5087;0,16937
499,4729;0,169481
500,4372;0,169469
501,4014;0,169433
502,3656;0,169511
503,3299;0,169797
504,2941;0,170281
505,2583;0,170873
506,2226;0,171467
507,1868;0,171998
508,1510;0,172466
509,1153;0,172906
510,0795;0,173358
511,0437;0,173836
512,0080;0,174335
512,9722;0,17485
513,9365;0,175398
514,9007;0,176009
515,8649;0,176715
516,8292;0,177507
517,7934;0,178322
518,7576;0,179053
519,7219;0,179593
520,6861;0,179887
521,6503;0,179946
522,6146;0,179838
523,5788;0,179672
524,5430;0,179579
525,5073;0,179667
526,4715;0,17996
527,4357;0,18037
528,4000;0,180741
529,3642;0,180935
530,3284;0,180898
531,2927;0,180673
532,2569;0,180356
533,2211;0,180036
534,1854;0,179747
535,1496;0,179467
536,1138;0,179166
537,0781;0,178857
538,0423;0,1786
539,0065;0,178464
539,9708;0,178471
540,9350;0,178574
541,8992;0,178687
542,8635;0,178742
543,8277;0,178734
544,7919;0,178724
545,7562;0,17879
546,7204;0,178983
547,6846;0,179294
548,6489;0,179674
549,6131;0,180072
550,5773;0,180468
551,5416;0,180876
552,5058;0,181322
553,4700;0,181818
554,4343;0,182351
555,3985;0,182878
556,3627;0,183345
557,3270;0,183694
558,2912;0,18387
559,2554;0,183822
560,2197;0,183512
561,1839;0,182932
562,1481;0,182119
563,1124;0,181156
564,0766;0,180141
565,0408;0,179153
566,0051;0,178224
566,9693;0,177349
567,9335;0,176518
568,8978;0,175751
569,8620;0,175106
570,8262;0,174653
571,7905;0,174433
572,7547;0,174433
573,7189;0,174587
574,6832;0,174802
575,6474;0,174983
576,6116;0,175062
577,5759;0,17501
578,5401;0,174833
579,5043;0,17456
580,4686;0,174235
581,4328;0,1739
582,3970;0,173591
583,3613;0,173326
584,3255;0,173107
585,2897;0,172932
586,2540;0,172807
587,2182;0,172743
588,1824;0,172751
589,1467;0,17282
590,1109;0,172912
591,0751;0,172977
592,0394;0,172973
593,0036;0,172893
593,9678;0,172759
594,9321;0,172591
595,8963;0,17239
596,8605;0,172126
597,8248;0,171765
598,7890;0,171297
599,7532;0,170756
600,7175;0,170211
601,6817;0,169729
602,6459;0,169345
603,6102;0,16905
604,5744;0,168803
605,5386;0,168553
606,5029;0,168254
607,4671;0,167869
608,4313;0,167379
609,3956;0,166788
610,3598;0,166129
611,3240;0,165463
612,2883;0,164854
613,2525;0,164336
614,2167;0,163895
615,1810;0,163462
616,1452;0,162943
617,1094;0,16226
618,0737;0,161386
619,0379;0,16035
620,0021;0,159205
620,9664;0,158004
621,9306;0,156784
622,8948;0,15558
623,8591;0,154442
624,8233;0,153418
625,7875;0,152549
626,7518;0,151827
627,7160;0,151206
628,6802;0,150623
629,6445;0,150031
630,6087;0,149411
631,5729;0,148771
632,5372;0,148124
633,5014;0,147481
634,4656;0,146841
635,4299;0,146206
636,3941;0,14558
637,3583;0,144981
638,3226;0,144427
639,2868;0,143931
640,2510;0,143496
641,2153;0,143112
642,1795;0,142757
643,1437;0,142406
644,1080;0,142038
645,0722;0,14164
646,0364;0,141212
647,0007;0,140763
647,9649;0,140306
648,9291;0,139856
649,8934;0,139427
650,8576;0,139032
651,8218;0,13869
652,7861;0,138419
653,7503;0,138239
654,7145;0,138161
655,6788;0,138182
656,6430;0,13828
657,6072;0,138419
658,5715;0,138551
659,5357;0,138623
660,4999;0,138598
661,4642;0,138475
662,4284;0,138292
663,3926;0,138112
664,3569;0,137987
665,3211;0,137945
666,2853;0,137942
667,2496;0,137766
668,2138;0,137048
669,1780;0,135658
670,1423;0,133972
671,1065;0,13237
672,0707;0,130923
673,0350;0,129547
673,9992;0,128164
674,9634;0,126741
675,9277;0,125286
676,8919;0,123814
677,8561;0,122338
678,8204;0,120874
679,7846;0,119466
680,7488;0,118181
681,7131;0,117082
682,6773;0,116192
683,6415;0,115489
684,6058;0,114928
685,5700;0,114467
686,5342;0,114074
687,4985;0,113719
688,4627;0,113372
689,4269;0,11301
690,3912;0,112629
691,3554;0,112245
692,3196;0,111874
693,2839;0,111523
694,2481;0,111182
695,2123;0,110837
696,1766;0,110485
697,1408;0,110136
698,1050;0,109806
699,0693;0,109493
700,0335;0,109178
700,9977;0,108826
701,9620;0,10841
702,9262;0,107924
703,8904;0,107387
704,8547;0,10683
705,8189;0,106282
706,7831;0,105758
707,7474;0,105254
708,7116;0,104757
709,6758;0,104253
710,6401;0,103733
711,6043;0,103194
712,5685;0,102644
713,5328;0,102103
714,4970;0,101593
715,4612;0,101072
716,4255;0,100659
717,3897;0,10025
718,3539;0,0997763
719,3182;0,0991711
720,2824;0,0983992
721,2466;0,0974821
722,2109;0,0964876
723,1751;0,0954942
724,1393;0,0945571
725,1036;0,0936968
726,0678;0,0929068
727,0320;0,0921706
727,9963;0,0914743
728,9605;0,0908127
729,9247;0,0901853
730,8890;0,0895896
731,8532;0,0890157
732,8174;0,0884472
733,7817;0,0878686
734,7459;0,0872741
735,7101;0,0866733
736,6744;0,0860879
737,6386;0,0855411
738,6028;0,0850468
739,5671;0,0846042
740,5313;0,0842003
741,4955;0,0838187
742,4598;0,0834454
743,4240;0,0830707
744,3882;0,0826875
745,3525;0,0822899
746,3167;0,0818759
747,2809;0,0814488
748,2452;0,0810173
749,2094;0,0805901
750,1736;0,0801718
751,1379;0,0797613
752,1021;0,0793549
753,0663;0,0789505
754,0306;0,078548
754,9948;0,0781475
755,9590;0,0777466
756,9233;0,0773426
757,8875;0,076937
758,8517;0,076539
759,8160;0,0761627
760,7802;0,075818
761,7444;0,0755034
762,7087;0,0752033
763,6729;0,0748959
764,6371;0,0745654
765,6014;0,0742111
766,5656;0,073847
767,5298;0,0734927
768,4941;0,0731611
769,4583;0,0728518
770,4225;0,0725539
771,3868;0,0722561
772,3510;0,0719573
773,3152;0,0716681
774,2795;0,0714042
775,2437;0,0711734
776,2079;0,070967
777,1722;0,0707606
778,1364;0,0705263
779,1006;0,0702463
780,0649;0,0699217
781,0291;0,0695707
781,9933;0,0692181
782,9576;0,0688841
783,9218;0,0685788
784,8860;0,0683031
785,8503;0,0680533
786,8145;0,0678254
787,7787;0,0676147
788,7430;0,0674152
789,7072;0,0672185
790,6714;0,0670172
791,6357;0,0668089
792,5999;0,0665987
793,5641;0,0663975
794,5284;0,066216
795,4926;0,06606
796,4568;0,065928
797,4211;0,0658138
798,3853;0,0657111
799,3495;0,0656159
800,3138;0,0655254
801,2780;0,0654353
802,2422;0,0653375
803,2065;0,0652224
804,1707;0,0650833
805,1349;0,0649205
806,0992;0,064741
807,0634;0,0645555
808,0276;0,0643727
808,9919;0,064197
809,9561;0,0640292
810,9203;0,0638688
811,8846;0,0637171
812,8488;0,0635768
813,8130;0,0634494
814,7773;0,0633331
815,7415;0,0632217
816,7057;0,0631072
817,6700;0,0629824
818,6342;0,0628429
819,5984;0,0626881
820,5627;0,0625196
821,5269;0,0623408
822,4911;0,0621575
823,4554;0,0619785
824,4196;0,0618154
825,3839;0,0616796
826,3481;0,0615763
827,3123;0,0615
828,2766;0,0614338
829,2408;0,0613546
830,2050;0,0612418
831,1693;0,061086
832,1335;0,0608908
833,0977;0,0606693
834,0620;0,0604363
835,0262;0,0602026
835,9904;0,0599731
836,9547;0,0597485
837,9189;0,0595281
838,8831;0,0593112
839,8474;0,0590969
840,8116;0,0588839
841,7758;0,0586713
842,7401;0,0584597
843,7043;0,0582524
844,6685;0,0580551
845,6328;0,0578746
846,5970;0,0577183
847,5612;0,0575921
848,5255;0,0574984
849,4897;0,0574342
850,4539;0,0573899
851,4182;0,0573526
852,3824;0,0573111
853,3466;0,0572614
854,3109;0,0572069
855,2751;0,0571531
856,2393;0,0571023
857,2036;0,0570511
858,1678;0,0569955
859,1320;0,0569385
860,0963;0,056894
861,0605;0,0568824
862,0247;0,0569204
862,9890;0,0570114
863,9532;0,0571428
864,9174;0,0572922
865,8817;0,0574378
866,8459;0,0575665
867,8101;0,057678
868,7744;0,057783
869,7386;0,0578982
870,7028;0,0580399
871,6671;0,0582155
872,6313;0,0584181
873,5955;0,0586259
874,5598;0,0588099
875,5240;0,058947
876,4882;0,0590327
877,4525;0,0590849
878,4167;0,0591356
879,3809;0,0592179
880,3452;0,0593538
881,3094;0,059552
882,2736;0,059814
883,2379;0,0601429
884,2021;0,0605484
885,1663;0,0610442
886,1306;0,0616413
887,0948;0,0623417
888,0590;0,0631368
889,0233;0,0640085
889,9875;0,0649323
890,9517;0,0658776
891,9160;0,0668079
892,8802;0,0676805
893,8444;0,0684496
894,8087;0,0690727
895,7729;0,0695167
896,7371;0,0697629
897,7014;0,0698076
898,6656;0,0696594
899,6298;0,069336
900,5941;0,0688607
901,5583;0,0682617
902,5225;0,0675725
903,4868;0,0668322
904,4510;0,066084
905,4152;0,0653712
906,3795;0,064731
907,3437;0,0641873
908,3079;0,0637471
909,2722;0,0634009
910,2364;0,0631306
911,2007;0,0629186
912,1649;0,0627554
913,1292;0,0626403
914,0934;0,062576
915,0576;0,0625617
916,0219;0,062591
916,9861;0,0626557
917,9503;0,0627523
918,9146;0,0628856
919,8788;0,0630641
920,8430;0,0632914
921,8073;0,0635585
922,7715;0,0638433
923,7357;0,0641187
924,7000;0,0643632
925,6642;0,0645671
926,6284;0,0647337
927,5927;0,0648751
928,5569;0,0650079
929,5211;0,0651497
930,4854;0,0653157
931,4496;0,0655144
932,4138;0,0657444
933,3781;0,0659941
934,3423;0,0662491
935,3065;0,0665034
936,2708;0,0667676
937,2350;0,0670679
938,1992;0,0674354
939,1635;0,0678905
940,1277;0,0684334
941,0919;0,0690462
942,0562;0,0697041
943,0204;0,0703903
943,9846;0,071105
944,9489;0,0718641
945,9131;0,0726898
946,8773;0,0735992
947,8416;0,0745976
948,8058;0,0756777
949,7700;0,0768251
950,7343;0,0780264
951,6985;0,0792755
952,6627;0,080575
953,6270;0,0819345
954,5912;0,0833653
955,5554;0,0848747
956,5197;0,0864623
957,4839;0,0881191
958,4481;0,0898291
959,4124;0,0915734
960,3766;0,0933347
961,3408;0,0951013
962,3051;0,0968687
963,2693;0,0986389
964,2335;0,100418
965,1978;0,102214
966,1620;0,104033
967,1262;0,105884
968,0905;0,107776
969,0547;0,10972
970,0189;0,111734
970,9832;0,113843
971,9474;0,116074
972,9116;0,118461
973,8759;0,12104
974,8401;0,12384
975,8043;0,126886
976,7686;0,130186
977,7328;0,133732
978,6970;0,137486
979,6613;0,141383
980,6255;0,145328
981,5897;0,149205
982,5540;0,15289
983,5182;0,156276
984,4824;0,159292
985,4467;0,161912
986,4109;0,164157
987,3751;0,166077
988,3394;0,167733
989,3036;0,169179
990,2678;0,170455
991,2321;0,17159
992,1963;0,172612
993,1605;0,17356
994,1248;0,174478
995,0890;0,175412
996,0532;0,176395
997,0175;0,177435
997,9817;0,178521
998,9459;0,179627
999,9102;0,180735
1000,8744;0,181841
1001,8386;0,18296
1002,8029;0,184119
1003,7671;0,185352
1004,7313;0,186696
1005,6956;0,188194
1006,6598;0,189896
1007,6240;0,191852
1008,5883;0,1941
1009,5525;0,196643
1010,5167;0,19945
1011,4810;0,20245
1012,4452;0,205555
1013,4094;0,20867
1014,3737;0,21171
1015,3379;0,214604
1016,3021;0,217299
1017,2664;0,219766
1018,2306;0,221997
1019,1948;0,224017
1020,1591;0,225876
1021,1233;0,227641
1022,0875;0,229378
1023,0518;0,231138
1024,0160;0,232945
1024,9802;0,234795
1025,9445;0,236652
1026,9087;0,238464
1027,8729;0,240161
1028,8372;0,241661
1029,8014;0,242869
1030,7656;0,243679
1031,7299;0,243983
1032,6941;0,243688
1033,6583;0,242744
1034,6226;0,241169
1035,5868;0,239065
1036,5510;0,236603
1037,5153;0,234001
1038,4795;0,231477
1039,4437;0,229215
1040,4080;0,227337
1041,3722;0,225897
1042,3364;0,224881
1043,3007;0,224223
1044,2649;0,223818
1045,2291;0,223548
1046,1934;0,223299
1047,1576;0,222979
1048,1218;0,222524
1049,0861;0,221897
1050,0503;0,221069
1051,0145;0,220018
1051,9788;0,218722
1052,9430;0,217171
1053,9072;0,21537
1054,8715;0,213339
1055,8357;0,211095
1056,7999;0,208632
1057,7642;0,205904
1058,7284;0,202843
1059,6926;0,199385
1060,6569;0,195519
1061,6211;0,19131
1062,5853;0,186897
1063,5496;0,182464
1064,5138;0,178187
1065,4780;0,174201
1066,4423;0,170574
1067,4065;0,167316
1068,3707;0,164395
1069,3350;0,161753
1070,2992;0,159329
1071,2634;0,157066
1072,2277;0,154915
1073,1919;0,152835
1074,1561;0,150791
1075,1204;0,148757
1076,0846;0,146712
1077,0488;0,144651
1078,0131;0,142589
1078,9773;0,140563
1079,9415;0,138624
1080,9058;0,13683
1081,8700;0,135227
1082,8342;0,133839
1083,7985;0,132666
1084,7627;0,131685
1085,7269;0,130856
1086,6912;0,130134
1087,6554;0,129484
1088,6196;0,128891
1089,5839;0,128365
1090,5481;0,127933
1091,5123;0,127625
1092,4766;0,127452
1093,4408;0,127401
1094,4050;0,127442
1095,3693;0,127538
1096,3335;0,127673
1097,2977;0,127848
1098,2620;0,128083
1099,2262;0,128393
1100,1904;0,128777
1101,1547;0,129203
1102,1189;0,129619
1103,0831;0,129965
1104,0474;0,130188
1105,0116;0,130256
1105,9758;0,13016
1106,9401;0,129913
1107,9043;0,129527
1108,8685;0,129009
1109,8328;0,128339
1110,7970;0,127479
1111,7612;0,126383
1112,7255;0,125027
1113,6897;0,123428
1114,6539;0,121656
1115,6182;0,119821
1116,5824;0,118043
1117,5466;0,116416
1118,5109;0,11498
1119,4751;0,113709
1120,4393;0,112527
1121,4036;0,11133
1122,3678;0,110024
1123,3320;0,108539
1124,2963;0,106847
1125,2605;0,104953
1126,2247;0,102888
1127,1890;0,100698
1128,1532;0,0984348
1129,1174;0,0961445
1130,0817;0,0938673
1131,0459;0,0916335
1132,0101;0,0894667
1132,9744;0,0873895
1133,9386;0,0854306
1134,9028;0,0836266
1135,8671;0,0820191
1136,8313;0,0806451
1137,7955;0,0795272
1138,7598;0,0786689
1139,7240;0,0780557
1140,6882;0,0776624
1141,6525;0,0774593
1142,6167;0,0774172
1143,5809;0,0775089
1144,5452;0,077711
1145,5094;0,0780051
1146,4736;0,07838
1147,4379;0,0788325
1148,4021;0,079364
1149,3663;0,0799768
1150,3306;0,0806686
1151,2948;0,0814302
1152,2590;0,0822442
1153,2233;0,083085
1154,1875;0,0839179
1155,1517;0,0846974
1156,1160;0,0853676
1157,0802;0,0858635
1158,0444;0,086115
1159,0087;0,0860512
1159,9729;0,0856063
1160,9371;0,0847267
1161,9014;0,0833795
1162,8656;0,0815628
1163,8298;0,0793129
1164,7941;0,0767059
1165,7583;0,0738508
1166,7225;0,0708743
1167,6868;0,067902
1168,6510;0,0650388
1169,6152;0,0623571
1170,5795;0,0598936
1171,5437;0,0576561
1172,5079;0,0556371
1173,4722;0,0538254
1174,4364;0,0522138
1175,4006;0,0507984
1176,3649;0,0495738
1177,3291;0,0485288
1178,2933;0,0476454
1179,2576;0,0469022
1180,2218;0,0462789
1181,1860;0,04576
1182,1503;0,0453356
1183,1145;0,0450004
1184,0787;0,0447513
1185,0430;0,0445853
1186,0072;0,0444984
1186,9714;0,0444862
1187,9357;0,0445445
1188,8999;0,0446723
1189,8641;0,0448723
1190,8284;0,0451509
1191,7926;0,0455144
1192,7568;0,0459654
1193,7211;0,0465
1194,6853;0,0471078
1195,6495;0,047774
1196,6138;0,0484825
1197,5780;0,0492174
1198,5422;0,0499646
1199,5065;0,0507177
1200,4707;0,0514527
1201,4349;0,0521691
1202,3992;0,0528622
1203,3634;0,0535283
1204,3276;0,0541639
1205,2919;0,0547659
1206,2561;0,055334
1207,2203;0,0558746
1208,1846;0,0564031
1209,1488;0,0569422
1210,1130;0,0575173
1211,0773;0,0581499
1212,0415;0,058852
1213,0057;0,0596234
1213,9700;0,0604535
1214,9342;0,0613241
1215,8984;0,0622146
1216,8627;0,063105
1217,8269;0,0639794
1218,7911;0,0648274
1219,7554;0,0656447
1220,7196;0,0664312
1221,6838;0,0671885
1222,6481;0,0679169
1223,6123;0,0686139
1224,5765;0,0692753
1225,5408;0,069897
1226,5050;0,0704773
1227,4692;0,0710181
1228,4335;0,0715237
1229,3977;0,0719985
1230,3619;0,0724441
1231,3262;0,0728575
1232,2904;0,0732314
1233,2546;0,0735578
1234,2189;0,0738319
1235,1831;0,0740555
1236,1473;0,0742377
1237,1116;0,0743906
1238,0758;0,0745243
1239,0400;0,0746418
1240,0043;0,0747377
1240,9685;0,0748013
1241,9327;0,0748215
1242,8970;0,0747899
1243,8612;0,0747017
1244,8254;0,0745554
1245,7897;0,0743507
1246,7539;0,0740904
1247,7181;0,0737814
1248,6824;0,073435
1249,6466;0,0730652
1250,6108;0,0726855
1251,5751;0,0723062
1252,5393;0,0719346
1253,5035;0,0715756
1254,4678;0,0712315
1255,4320;0,0709009
1256,3962;0,0705754
1257,3605;0,0702406
1258,3247;0,0698797
1259,2889;0,0694797
1260,2532;0,0690359
1261,2174;0,0685501
1262,1816;0,0680262
1263,1459;0,0674641
1264,1101;0,066859
1265,0743;0,0662052
1266,0386;0,0655006
1267,0028;0,0647494
1267,9670;0,0639602
1268,9313;0,0631427
1269,8955;0,0623045
1270,8597;0,061451
1271,8240;0,060587
1272,7882;0,0597191
1273,7524;0,0588566
1274,7167;0,0580119
1275,6809;0,0571985
1276,6451;0,0564272
1277,6094;0,0557017
1278,5736;0,0550162
1279,5378;0,054356
1280,5021;0,053704
1281,4663;0,053049
1282,4305;0,0523915
1283,3948;0,0517437
1284,3590;0,0511239
1285,3232;0,0505491
1286,2875;0,050031
1287,2517;0,0495756
1288,2159;0,0491859
1289,1802;0,048865
1290,1444;0,0486165
1291,1086;0,0484442
1292,0729;0,0483502
1293,0371;0,0483338
1294,0013;0,0483914
1294,9656;0,0485168
1295,9298;0,0487027
1296,8940;0,0489437
1297,8583;0,0492382
1298,8225;0,0495896
1299,7867;0,0500037
1300,7510;0,0504845
1301,7152;0,0510302
1302,6794;0,0516325
1303,6437;0,0522791
1304,6079;0,0529584
1305,5721;0,0536626
1306,5364;0,0543889
1307,5006;0,0551371
1308,4648;0,0559057
1309,4291;0,0566884
1310,3933;0,0574712
1311,3575;0,0582323
1312,3218;0,0589446
1313,2860;0,0595809
1314,2502;0,0601176
1315,2145;0,0605352
1316,1787;0,0608172
1317,1429;0,0609509
1318,1072;0,0609341
1319,0714;0,060783
1320,0356;0,0605332
1320,9999;0,0602297
1321,9641;0,0599129
1322,9283;0,059609
1323,8926;0,0593314
1324,8568;0,059087
1325,8210;0,0588812
1326,7853;0,0587169
1327,7495;0,0585904
1328,7137;0,0584883
1329,6780;0,0583903
1330,6422;0,0582764
1331,6064;0,058137
1332,5707;0,0579761
1333,5349;0,0578055
1334,4991;0,0576304
1335,4634;0,0574352
1336,4276;0,0571776
1337,3918;0,0568011
1338,3561;0,0562674
1339,3203;0,0555947
1340,2845;0,0548639
1341,2488;0,0541761
1342,2130;0,0535993
1343,1772;0,0531505
1344,1415;0,0528111
1345,1057;0,0525517
1346,0699;0,0523512
1347,0342;0,0522064
1347,9984;0,0521317
1348,9626;0,0521488
1349,9269;0,0522716
1350,8911;0,052495
1351,8553;0,0527943
1352,8196;0,0531356
1353,7838;0,0534932
1354,7480;0,0538633
1355,7123;0,0542648
1356,6765;0,0547251
1357,6407;0,0552595
1358,6050;0,0558584
