TITLE;
DATA TYPE;INFRARED SPECTRUM
ORIGIN;JASCO
OWNER;
DATE;25/03/17
TIME;14:14:02
SPECTROMETER/DATA SYSTEM;
LOCALE;9226
RESOLUTION;
DELTAX;0,964233
XUNITS;1/CM
YUNITS;ABSORBANCE
FIRSTX;  399,1927
LASTX; 4000,6047
NPOINTS;    3736
FIRSTY;     0,16740
MAXY;     0,21708
MINY;     0,01458
XYDATA
399,1927;0,167395
400,1569;0,167887
401,1211;0,167427
402,0854;0,166314
403,0496;0,165056
404,0138;0,164102
404,9781;0,163723
405,9423;0,163942
406,9065;0,164518
407,8708;0,165065
408,8350;0,165261
409,7992;0,16503
410,7635;0,164592
411,7277;0,164347
412,6919;0,164635
413,6562;0,165549
414,6204;0,166931
415,5846;0,168483
416,5489;0,169857
417,5131;0,170717
418,4773;0,17092
419,4416;0,170722
420,4058;0,170607
421,3700;0,170797
422,3343;0,17116
423,2985;0,171439
424,2627;0,171446
425,2270;0,17115
426,1912;0,17068
427,1554;0,17023
428,1197;0,169932
429,0839;0,169795
430,0481;0,169734
431,0124;0,169664
431,9766;0,169581
432,9408;0,169574
433,9051;0,169752
434,8693;0,17014
435,8335;0,170612
436,7978;0,170946
437,7620;0,170953
438,7262;0,170589
439,6905;0,16997
440,6547;0,169306
441,6189;0,168801
442,5832;0,168565
443,5474;0,168569
444,5116;0,168685
445,4759;0,168769
446,4401;0,168735
447,4043;0,168557
448,3686;0,168239
449,3328;0,167798
450,2970;0,167281
451,2613;0,166787
452,2255;0,16645
453,1897;0,166385
454,1540;0,166625
455,1182;0,167085
456,0824;0,167569
457,0467;0,167843
458,0109;0,167756
458,9751;0,167352
459,9394;0,166834
460,9036;0,166413
461,8678;0,166182
462,8321;0,166116
463,7963;0,166113
464,7605;0,166048
465,7248;0,165821
466,6890;0,165397
467,6532;0,164831
468,6175;0,164247
469,5817;0,163802
470,5459;0,16363
471,5102;0,163783
472,4744;0,16418
473,4386;0,164642
474,4029;0,16499
475,3671;0,165141
476,3313;0,165112
477,2956;0,16497
478,2598;0,164788
479,2240;0,164627
480,1883;0,164539
481,1525;0,164563
482,1167;0,164714
483,0810;0,164964
484,0452;0,165244
485,0094;0,165481
485,9737;0,165659
486,9379;0,165841
487,9021;0,166132
488,8664;0,166598
489,8306;0,167211
490,7948;0,167832
491,7591;0,168272
492,7233;0,168395
493,6875;0,168214
494,6518;0,167882
495,6160;0,167612
496,5802;0,16756
497,5445;0,167767
498,5087;0,168162
499,4729;0,168606
500,4372;0,168964
501,4014;0,169159
502,3656;0,169204
503,3299;0,16918
504,2941;0,169171
505,2583;0,169225
506,2226;0,16934
507,1868;0,1695
508,1510;0,169702
509,1153;0,169967
510,0795;0,17033
511,0437;0,170807
512,0080;0,171383
512,9722;0,17202
513,9365;0,172671
514,9007;0,173297
515,8649;0,173863
516,8292;0,174332
517,7934;0,174676
518,7576;0,174885
519,7219;0,174989
520,6861;0,175046
521,6503;0,175115
522,6146;0,17523
523,5788;0,175376
524,5430;0,175502
525,5073;0,175537
526,4715;0,175428
527,4357;0,175173
528,4000;0,174815
529,3642;0,17441
530,3284;0,174005
531,2927;0,173622
532,2569;0,173269
533,2211;0,172949
534,1854;0,17267
535,1496;0,172446
536,1138;0,172289
537,0781;0,172198
538,0423;0,172149
539,0065;0,172109
539,9708;0,172053
540,9350;0,171983
541,8992;0,171927
542,8635;0,171926
543,8277;0,172008
544,7919;0,172175
545,7562;0,17241
546,7204;0,172697
547,6846;0,173032
548,6489;0,173412
549,6131;0,173821
550,5773;0,174222
551,5416;0,174574
552,5058;0,17486
553,4700;0,175097
554,4343;0,175329
555,3985;0,175583
556,3627;0,175841
557,3270;0,176037
558,2912;0,17608
559,2554;0,175897
560,2197;0,175452
561,1839;0,174751
562,1481;0,173841
563,1124;0,172801
564,0766;0,171742
565,0408;0,17078
566,0051;0,17001
566,9693;0,169458
567,9335;0,169073
568,8978;0,168747
569,8620;0,168377
570,8262;0,167923
571,7905;0,167424
572,7547;0,166958
573,7189;0,166593
574,6832;0,166348
575,6474;0,166189
576,6116;0,166063
577,5759;0,165936
578,5401;0,165812
579,5043;0,165717
580,4686;0,16567
581,4328;0,165654
582,3970;0,165624
583,3613;0,165536
584,3255;0,165376
585,2897;0,165172
586,2540;0,164973
587,2182;0,164819
588,1824;0,164715
589,1467;0,164633
590,1109;0,164536
591,0751;0,164401
592,0394;0,164238
593,0036;0,164082
593,9678;0,163961
594,9321;0,163875
595,8963;0,16379
596,8605;0,16365
597,8248;0,163411
598,7890;0,163056
599,7532;0,162612
600,7175;0,162128
601,6817;0,161654
602,6459;0,161215
603,6102;0,160803
604,5744;0,160393
605,5386;0,159957
606,5029;0,159477
607,4671;0,158951
608,4313;0,158384
609,3956;0,15779
610,3598;0,157198
611,3240;0,156658
612,2883;0,156234
613,2525;0,155966
614,2167;0,155833
615,1810;0,155725
616,1452;0,15546
617,1094;0,154863
618,0737;0,153867
619,0379;0,152565
620,0021;0,151157
620,9664;0,149841
621,9306;0,148732
622,8948;0,147835
623,8591;0,147079
624,8233;0,146348
625,7875;0,145657
626,7518;0,145004
627,7160;0,144416
628,6802;0,143907
629,6445;0,143463
630,6087;0,143046
631,5729;0,142618
632,5372;0,142152
633,5014;0,141654
634,4656;0,14115
635,4299;0,14068
636,3941;0,140273
637,3583;0,139941
638,3226;0,139672
639,2868;0,139441
640,2510;0,139222
641,2153;0,139005
642,1795;0,138793
643,1437;0,138603
644,1080;0,13845
645,0722;0,138334
646,0364;0,13824
647,0007;0,138134
647,9649;0,137977
648,9291;0,137744
649,8934;0,137442
650,8576;0,137112
651,8218;0,136823
652,7861;0,136639
653,7503;0,1366
654,7145;0,136698
655,6788;0,136888
656,6430;0,137106
657,6072;0,137312
658,5715;0,137491
659,5357;0,137635
660,4999;0,137703
661,4642;0,137604
662,4284;0,13723
663,3926;0,136503
664,3569;0,135444
665,3211;0,134277
666,2853;0,13347
667,2496;0,13347
668,2138;0,134037
669,1780;0,134282
670,1423;0,133882
671,1065;0,133125
672,0707;0,132151
673,0350;0,130936
673,9992;0,129515
674,9634;0,128007
675,9277;0,126534
676,8919;0,125153
677,8561;0,123852
678,8204;0,122608
679,7846;0,121425
680,7488;0,120331
681,7131;0,119344
682,6773;0,118441
683,6415;0,11758
684,6058;0,11673
685,5700;0,115898
686,5342;0,115128
687,4985;0,114466
688,4627;0,11394
689,4269;0,113531
690,3912;0,113191
691,3554;0,112862
692,3196;0,112492
693,2839;0,112043
694,2481;0,111505
695,2123;0,110894
696,1766;0,110247
697,1408;0,109609
698,1050;0,109011
699,0693;0,108472
700,0335;0,107994
700,9977;0,107577
701,9620;0,107217
702,9262;0,106896
703,8904;0,106571
704,8547;0,1062
705,8189;0,105746
706,7831;0,105198
707,7474;0,104576
708,7116;0,103924
709,6758;0,103281
710,6401;0,102665
711,6043;0,102065
712,5685;0,101459
713,5328;0,10084
714,4970;0,100231
715,4612;0,0990098
716,4255;0,0986844
717,3897;0,0984898
718,3539;0,0983134
719,3182;0,0979859
720,2824;0,0973657
721,2466;0,0964249
722,2109;0,0952684
723,1751;0,0940693
724,1393;0,0929771
725,1036;0,092061
726,0678;0,091308
727,0320;0,0906581
727,9963;0,0900482
728,9605;0,0894415
729,9247;0,0888326
730,8890;0,0882351
731,8532;0,0876661
732,8174;0,0871381
733,7817;0,0866568
734,7459;0,0862215
735,7101;0,0858241
736,6744;0,085448
737,6386;0,0850723
738,6028;0,0846786
739,5671;0,0842589
740,5313;0,0838196
741,4955;0,0833778
742,4598;0,0829527
743,4240;0,0825562
744,3882;0,0821871
745,3525;0,0818316
746,3167;0,0814697
747,2809;0,0810834
748,2452;0,0806653
749,2094;0,0802217
750,1736;0,07977
751,1379;0,0793308
752,1021;0,0789181
753,0663;0,0785326
754,0306;0,078162
754,9948;0,0777899
755,9590;0,0774065
756,9233;0,077017
757,8875;0,0766394
758,8517;0,0762954
759,8160;0,0759974
760,7802;0,075742
761,7444;0,0755112
762,7087;0,0752809
763,6729;0,0750314
764,6371;0,0747527
765,6014;0,0744459
766,5656;0,0741215
767,5298;0,0737959
768,4941;0,0734874
769,4583;0,073211
770,4225;0,0729724
771,3868;0,0727648
772,3510;0,0725709
773,3152;0,0723698
774,2795;0,0721447
775,2437;0,0718884
776,2079;0,0716036
777,1722;0,0712997
778,1364;0,0709888
779,1006;0,070683
780,0649;0,0703909
781,0291;0,070115
781,9933;0,0698496
782,9576;0,0695822
783,9218;0,0692992
784,8860;0,0689926
785,8503;0,0686651
786,8145;0,0683286
787,7787;0,0679979
788,7430;0,0676838
789,7072;0,0673903
790,6714;0,0671174
791,6357;0,066866
792,5999;0,0666411
793,5641;0,0664493
794,5284;0,0662929
795,4926;0,0661642
796,4568;0,0660454
797,4211;0,0659143
798,3853;0,0657554
799,3495;0,0655679
800,3138;0,0653674
801,2780;0,0651788
802,2422;0,0650243
803,2065;0,0649135
804,1707;0,0648396
805,1349;0,0647838
806,0992;0,0647244
807,0634;0,0646458
808,0276;0,0645436
808,9919;0,064424
809,9561;0,064301
810,9203;0,0641894
811,8846;0,0640991
812,8488;0,064029
813,8130;0,0639669
814,7773;0,0638938
815,7415;0,0637948
816,7057;0,0636681
817,6700;0,0635285
818,6342;0,0634001
819,5984;0,0633024
820,5627;0,0632385
821,5269;0,0631922
822,4911;0,0631386
823,4554;0,0630595
824,4196;0,0629559
825,3839;0,0628483
826,3481;0,0627655
827,3123;0,0627276
828,2766;0,0627338
829,2408;0,0627615
830,2050;0,0627751
831,1693;0,0627407
832,1335;0,0626378
833,0977;0,0624641
834,0620;0,0622339
835,0262;0,061972
835,9904;0,0617073
836,9547;0,0614654
837,9189;0,0612623
838,8831;0,0611
839,8474;0,0609661
840,8116;0,0608397
841,7758;0,0607013
842,7401;0,0605426
843,7043;0,0603701
844,6685;0,0602005
845,6328;0,0600509
846,5970;0,0599308
847,5612;0,0598393
848,5255;0,0597689
849,4897;0,0597118
850,4539;0,0596635
851,4182;0,0596225
852,3824;0,0595877
853,3466;0,0595557
854,3109;0,0595205
855,2751;0,0594773
856,2393;0,0594256
857,2036;0,059373
858,1678;0,0593343
859,1320;0,0593267
860,0963;0,0593623
861,0605;0,0594413
862,0247;0,0595498
862,9890;0,0596663
863,9532;0,0597713
864,9174;0,0598581
865,8817;0,0599354
866,8459;0,0600227
867,8101;0,0601396
868,7744;0,0602971
869,7386;0,0604919
870,7028;0,0607072
871,6671;0,0609177
872,6313;0,0610964
873,5955;0,061223
874,5598;0,061292
875,5240;0,0613173
876,4882;0,0613294
877,4525;0,0613658
878,4167;0,0614572
879,3809;0,0616172
880,3452;0,0618401
881,3094;0,0621096
882,2736;0,0624105
883,2379;0,0627394
884,2021;0,0631065
885,1663;0,0635309
886,1306;0,0640318
887,0948;0,0646192
888,0590;0,0652898
889,0233;0,066026
889,9875;0,0667996
890,9517;0,0675764
891,9160;0,0683215
892,8802;0,069003
893,8444;0,0695942
894,8087;0,0700741
895,7729;0,070428
896,7371;0,0706478
897,7014;0,0707324
898,6656;0,0706873
899,6298;0,0705231
900,5941;0,0702538
901,5583;0,0698957
902,5225;0,0694686
903,4868;0,0689974
904,4510;0,0685131
905,4152;0,0680507
906,3795;0,0676441
907,3437;0,0673183
908,3079;0,0670853
909,2722;0,0669441
910,2364;0,0668858
911,2007;0,0669007
912,1649;0,0669826
913,1292;0,067128
914,0934;0,0673316
915,0576;0,0675827
916,0219;0,0678664
916,9861;0,0681686
917,9503;0,0684828
918,9146;0,0688106
919,8788;0,0691572
920,8430;0,0695221
921,8073;0,0698938
922,7715;0,0702505
923,7357;0,070568
924,7000;0,0708287
925,6642;0,0710278
926,6284;0,0711736
927,5927;0,071284
928,5569;0,0713802
929,5211;0,0714816
930,4854;0,0716012
931,4496;0,0717429
932,4138;0,0719012
933,3781;0,0720662
934,3423;0,0722309
935,3065;0,0723983
936,2708;0,072582
937,2350;0,0728008
938,1992;0,0730695
939,1635;0,0733929
940,1277;0,0737674
941,0919;0,0741887
942,0562;0,0746584
943,0204;0,0751856
943,9846;0,0757802
944,9489;0,0764446
945,9131;0,0771705
946,8773;0,077944
947,8416;0,0787555
948,8058;0,079607
949,7700;0,0805116
950,7343;0,0814841
951,6985;0,0825315
952,6627;0,0836491
953,6270;0,0848259
954,5912;0,0860541
955,5554;0,0873365
956,5197;0,0886844
957,4839;0,0901082
958,4481;0,0916075
959,4124;0,0931668
960,3766;0,0947613
961,3408;0,0963677
962,3051;0,0979735
963,2693;0,0995801
964,2335;0,101199
965,1978;0,102845
966,1620;0,104534
967,1262;0,106277
968,0905;0,108089
969,0547;0,109987
970,0189;0,111993
970,9832;0,114133
971,9474;0,116432
972,9116;0,118914
973,8759;0,121596
974,8401;0,124484
975,8043;0,127576
976,7686;0,130861
977,7328;0,134321
978,6970;0,137922
979,6613;0,141611
980,6255;0,145308
981,5897;0,148905
982,5540;0,152289
983,5182;0,155361
984,4824;0,15806
985,4467;0,160376
986,4109;0,16234
987,3751;0,164008
988,3394;0,165435
989,3036;0,166669
990,2678;0,16774
991,2321;0,16867
992,1963;0,169479
993,1605;0,170187
994,1248;0,170819
995,0890;0,171402
996,0532;0,171956
997,0175;0,172493
997,9817;0,173016
998,9459;0,173519
999,9102;0,174004
1000,8744;0,174485
1001,8386;0,174999
1002,8029;0,1756
1003,7671;0,176347
1004,7313;0,177288
1005,6956;0,178447
1006,6598;0,179825
1007,6240;0,181403
1008,5883;0,18316
1009,5525;0,185072
1010,5167;0,18712
1011,4810;0,189278
1012,4452;0,191505
1013,4094;0,193742
1014,3737;0,19592
1015,3379;0,197975
1016,3021;0,199868
1017,2664;0,20159
1018,2306;0,203161
1019,1948;0,204616
1020,1591;0,205988
1021,1233;0,207297
1022,0875;0,208554
1023,0518;0,209767
1024,0160;0,210945
1024,9802;0,212095
1025,9445;0,213218
1026,9087;0,214293
1027,8729;0,215278
1028,8372;0,216116
1029,8014;0,216738
1030,7656;0,217078
1031,7299;0,217074
1032,6941;0,216673
1033,6583;0,215846
1034,6226;0,214605
1035,5868;0,21301
1036,5510;0,211182
1037,5153;0,209276
1038,4795;0,207456
1039,4437;0,205858
1040,4080;0,204564
1041,3722;0,203599
1042,3364;0,202936
1043,3007;0,202513
1044,2649;0,202253
1045,2291;0,202072
1046,1934;0,201899
1047,1576;0,201673
1048,1218;0,201352
1049,0861;0,200901
1050,0503;0,200292
1051,0145;0,199494
1051,9788;0,198484
1052,9430;0,197251
1053,9072;0,195801
1054,8715;0,194153
1055,8357;0,192322
1056,7999;0,190297
1057,7642;0,188039
1058,7284;0,185499
1059,6926;0,182649
1060,6569;0,179512
1061,6211;0,176169
1062,5853;0,172745
1063,5496;0,169372
1064,5138;0,166161
1065,4780;0,163181
1066,4423;0,160457
1067,4065;0,157979
1068,3707;0,155711
1069,3350;0,153599
1070,2992;0,151589
1071,2634;0,149629
1072,2277;0,147682
1073,1919;0,145729
1074,1561;0,14376
1075,1204;0,141767
1076,0846;0,139743
1077,0488;0,137688
1078,0131;0,135616
1078,9773;0,133563
1079,9415;0,131581
1080,9058;0,129725
1081,8700;0,128037
1082,8342;0,126538
1083,7985;0,125229
1084,7627;0,124099
1085,7269;0,123129
1086,6912;0,122299
1087,6554;0,121588
1088,6196;0,12098
1089,5839;0,120468
1090,5481;0,120057
1091,5123;0,11976
1092,4766;0,119583
1093,4408;0,11952
1094,4050;0,11955
1095,3693;0,119649
1096,3335;0,119799
1097,2977;0,119997
1098,2620;0,12024
1099,2262;0,120521
1100,1904;0,120812
1101,1547;0,121072
1102,1189;0,121258
1103,0831;0,121337
1104,0474;0,121301
1105,0116;0,121159
1105,9758;0,120931
1106,9401;0,120634
1107,9043;0,12027
1108,8685;0,119824
1109,8328;0,119258
1110,7970;0,118526
1111,7612;0,117587
1112,7255;0,116429
1113,6897;0,115079
1114,6539;0,113606
1115,6182;0,112108
1116,5824;0,11068
1117,5466;0,109393
1118,5109;0,108269
1119,4751;0,10728
1120,4393;0,106359
1121,4036;0,105418
1122,3678;0,104377
1123,3320;0,103176
1124,2963;0,101795
1125,2605;0,100245
1126,2247;0,0985602
1127,1890;0,0967852
1128,1532;0,094958
1129,1174;0,0931056
1130,0817;0,0912445
1131,0459;0,0893883
1132,0101;0,0875555
1132,9744;0,085775
1133,9386;0,084086
1134,9028;0,082534
1135,8671;0,0811623
1136,8313;0,0800036
1137,7955;0,0790737
1138,7598;0,0783693
1139,7240;0,077871
1140,6882;0,0775491
1141,6525;0,0773714
1142,6167;0,0773087
1143,5809;0,0773387
1144,5452;0,0774471
1145,5094;0,0776274
1146,4736;0,0778789
1147,4379;0,0782041
1148,4021;0,0786045
1149,3663;0,0790756
1150,3306;0,0796046
1151,2948;0,0801693
1152,2590;0,0807409
1153,2233;0,0812876
1154,1875;0,0817775
1155,1517;0,0821789
1156,1160;0,0824571
1157,0802;0,0825714
1158,0444;0,0824725
1159,0087;0,0821042
1159,9729;0,0814099
1160,9371;0,0803445
1161,9014;0,078886
1162,8656;0,0770464
1163,8298;0,0748749
1164,7941;0,0724533
1165,7583;0,0698837
1166,7225;0,0672728
1167,6868;0,0647164
1168,6510;0,0622889
1169,6152;0,0600393
1170,5795;0,0579933
1171,5437;0,0561599
1172,5079;0,0545381
1173,4722;0,0531214
1174,4364;0,051899
1175,4006;0,0508548
1176,3649;0,0499685
1177,3291;0,0492175
1178,2933;0,0485814
1179,2576;0,0480448
1180,2218;0,0475975
1181,1860;0,047232
1182,1503;0,0469402
1183,1145;0,0467129
1184,0787;0,0465416
1185,0430;0,0464224
1186,0072;0,0463576
1186,9714;0,046355
1187,9357;0,0464244
1188,8999;0,0465721
1189,8641;0,0467991
1190,8284;0,0471009
1191,7926;0,0474707
1192,7568;0,0479018
1193,7211;0,0483895
1194,6853;0,0489295
1195,6495;0,0495143
1196,6138;0,050131
1197,5780;0,0507616
1198,5422;0,0513866
1199,5065;0,0518565
1200,4707;0,0524477
1201,4349;0,0530125
1202,3992;0,0535558
1203,3634;0,054082
1204,3276;0,054591
1205,2919;0,0550786
1206,2561;0,055541
1207,2203;0,05598
1208,1846;0,0564076
1209,1488;0,0568459
1210,1130;0,0573236
1211,0773;0,0578681
1212,0415;0,0584965
1213,0057;0,0592102
1213,9700;0,0599938
1214,9342;0,0608207
1215,8984;0,0616631
1216,8627;0,0624991
1217,8269;0,0633179
1218,7911;0,064119
1219,7554;0,064906
1220,7196;0,0656801
1221,6838;0,0664358
1222,6481;0,0671623
1223,6123;0,0678469
1224,5765;0,0684803
1225,5408;0,0690599
1226,5050;0,0695895
1227,4692;0,0700777
1228,4335;0,0705338
1229,3977;0,0709642
1230,3619;0,0713695
1231,3262;0,0717443
1232,2904;0,0720786
1233,2546;0,0723619
1234,2189;0,0725875
1235,1831;0,0727563
1236,1473;0,0728768
1237,1116;0,0729622
1238,0758;0,073025
1239,0400;0,0730717
1240,0043;0,0731016
1240,9685;0,0731075
1241,9327;0,0730797
1242,8970;0,0730097
1243,8612;0,0728916
1244,8254;0,0727238
1245,7897;0,0725085
1246,7539;0,0722524
1247,7181;0,0719654
1248,6824;0,0716577
1249,6466;0,0713365
1250,6108;0,0710029
1251,5751;0,0706535
1252,5393;0,0702856
1253,5035;0,0699026
1254,4678;0,0695162
1255,4320;0,0691404
1256,3962;0,0687829
1257,3605;0,0684385
1258,3247;0,0680896
1259,2889;0,0677141
1260,2532;0,0672955
1261,2174;0,0668298
1262,1816;0,0663245
1263,1459;0,0657921
1264,1101;0,0652431
1265,0743;0,0646833
1266,0386;0,0641133
1267,0028;0,0635305
1267,9670;0,0629302
1268,9313;0,0623073
1269,8955;0,0616584
1270,8597;0,0609843
1271,8240;0,0602918
1272,7882;0,0595921
1273,7524;0,0588985
1274,7167;0,0582226
1275,6809;0,0575733
1276,6451;0,0569565
1277,6094;0,0563744
1278,5736;0,0558249
1279,5378;0,055301
1280,5021;0,0547926
1281,4663;0,0542909
1282,4305;0,0537927
1283,3948;0,0533017
1284,3590;0,0528278
1285,3232;0,0523832
1286,2875;0,0519791
1287,2517;0,0516238
1288,2159;0,0513223
1289,1802;0,0510773
1290,1444;0,0508897
1291,1086;0,0507587
1292,0729;0,050683
1293,0371;0,0506611
1294,0013;0,0506916
1294,9656;0,0507732
1295,9298;0,050905
1296,8940;0,0510867
1297,8583;0,0513207
1298,8225;0,0516112
1299,7867;0,0519621
1300,7510;0,0523732
1301,7152;0,0528392
1302,6794;0,0533479
1303,6437;0,0538853
1304,6079;0,0544425
1305,5721;0,055018
1306,5364;0,0556165
1307,5006;0,0562433
1308,4648;0,0568988
1309,4291;0,0575739
1310,3933;0,0582505
1311,3575;0,0589044
1312,3218;0,0595101
1313,2860;0,0600455
1314,2502;0,0604941
1315,2145;0,0608427
1316,1787;0,0610773
1317,1429;0,0611842
1318,1072;0,0611571
1319,0714;0,0610081
1320,0356;0,0607721
1320,9999;0,060497
1321,9641;0,060226
1322,9283;0,0599848
1323,8926;0,05978
1324,8568;0,0596067
1325,8210;0,059457
1326,7853;0,0593258
1327,7495;0,0592107
1328,7137;0,0591092
1329,6780;0,0590152
1330,6422;0,05892
1331,6064;0,0588158
1332,5707;0,0586981
1333,5349;0,0585672
1334,4991;0,0584211
1335,4634;0,0582478
1336,4276;0,0580195
1337,3918;0,0576953
1338,3561;0,057242
1339,3203;0,0566688
1340,2845;0,0560426
1341,2488;0,0554544
1342,2130;0,0549654
1343,1772;0,0545884
1344,1415;0,0543066
1345,1057;0,0540999
1346,0699;0,0539588
1347,0342;0,0538843
1347,9984;0,0538834
1348,9626;0,0539616
1349,9269;0,0541173
1350,8911;0,0543388
1351,8553;0,0546068
1352,8196;0,054901
1353,7838;0,0552095
1354,7480;0,0555341
1355,7123;0,0558885
1356,6765;0,056288
1357,6407;0,0567383
1358,6050;0,057232
1359,5692;0,0577492
