TITLE;
DATA TYPE;INFRARED SPECTRUM
ORIGIN;JASCO
OWNER;
DATE;25/03/18
TIME;12:20:23
SPECTROMETER/DATA SYSTEM;
LOCALE;9226
RESOLUTION;
DELTAX;0,964233
XUNITS;1/CM
YUNITS;ABSORBANCE
FIRSTX;  399,1927
LASTX; 4000,6047
NPOINTS;    3736
FIRSTY;     0,20493
MAXY;     0,25048
MINY;     0,01085
XYDATA
399,1927;0,204931
400,1569;0,20365
401,1211;0,203377
402,0854;0,203684
403,0496;0,204137
404,0138;0,20448
404,9781;0,204654
405,9423;0,204732
406,9065;0,204812
407,8708;0,204916
408,8350;0,204967
409,7992;0,20488
410,7635;0,204678
411,7277;0,204543
412,6919;0,204723
413,6562;0,205364
414,6204;0,206418
415,5846;0,207666
416,5489;0,208785
417,5131;0,209466
418,4773;0,209636
419,4416;0,20964
420,4058;0,20996
421,3700;0,210737
422,3343;0,21177
423,2985;0,212805
424,2627;0,213708
425,2270;0,2145
426,1912;0,215306
427,1554;0,216246
428,1197;0,217335
429,0839;0,218464
430,0481;0,219447
431,0124;0,220108
431,9766;0,220361
432,9408;0,22024
433,9051;0,219875
434,8693;0,219439
435,8335;0,219075
436,7978;0,218845
437,7620;0,218727
438,7262;0,218646
439,6905;0,21854
440,6547;0,2184
441,6189;0,218279
442,5832;0,21824
443,5474;0,218288
444,5116;0,218323
445,4759;0,218181
446,4401;0,217728
447,4043;0,216949
448,3686;0,215964
449,3328;0,215006
450,2970;0,21434
451,2613;0,214163
452,2255;0,214499
453,1897;0,215166
454,1540;0,215829
455,1182;0,216108
456,0824;0,21573
457,0467;0,214696
458,0109;0,213377
458,9751;0,212344
459,9394;0,212
460,9036;0,212346
461,8678;0,213057
462,8321;0,213707
463,7963;0,213941
464,7605;0,213607
465,7248;0,212798
466,6890;0,211801
467,6532;0,210947
468,6175;0,21047
469,5817;0,210448
470,5459;0,21084
471,5102;0,211528
472,4744;0,212359
473,4386;0,213171
474,4029;0,213822
475,3671;0,214209
476,3313;0,214289
477,2956;0,214092
478,2598;0,213711
479,2240;0,213282
480,1883;0,212922
481,1525;0,212693
482,1167;0,21259
483,0810;0,212584
484,0452;0,212669
485,0094;0,212883
485,9737;0,213279
486,9379;0,213874
487,9021;0,214635
488,8664;0,215481
489,8306;0,216308
490,7948;0,217008
491,7591;0,217494
492,7233;0,217723
493,6875;0,217714
494,6518;0,217538
495,6160;0,217296
496,5802;0,217078
497,5445;0,216939
498,5087;0,216888
499,4729;0,21691
500,4372;0,216986
501,4014;0,217114
502,3656;0,217311
503,3299;0,217604
504,2941;0,218003
505,2583;0,218501
506,2226;0,219072
507,1868;0,219679
508,1510;0,220277
509,1153;0,220822
510,0795;0,22128
511,0437;0,221647
512,0080;0,221948
512,9722;0,222242
513,9365;0,222597
514,9007;0,223061
515,8649;0,223628
516,8292;0,224213
517,7934;0,224661
518,7576;0,224826
519,7219;0,224653
520,6861;0,224213
521,6503;0,223654
522,6146;0,223124
523,5788;0,222721
524,5430;0,222472
525,5073;0,222329
526,4715;0,222212
527,4357;0,222057
528,4000;0,221849
529,3642;0,22161
530,3284;0,22137
531,2927;0,221133
532,2569;0,220879
533,2211;0,220579
534,1854;0,220225
535,1496;0,219851
536,1138;0,219523
537,0781;0,219304
538,0423;0,219223
539,0065;0,219252
539,9708;0,219329
540,9350;0,219394
541,8992;0,219435
542,8635;0,219494
543,8277;0,219635
544,7919;0,219899
545,7562;0,220272
546,7204;0,220689
547,6846;0,221086
548,6489;0,221437
549,6131;0,221771
550,5773;0,222139
551,5416;0,222578
552,5058;0,223089
553,4700;0,223643
554,4343;0,224195
555,3985;0,224686
556,3627;0,225025
557,3270;0,225079
558,2912;0,224702
559,2554;0,223792
560,2197;0,222359
561,1839;0,220552
562,1481;0,218613
563,1124;0,216796
564,0766;0,215269
565,0408;0,21407
566,0051;0,21313
566,9693;0,212331
567,9335;0,211581
568,8978;0,21085
569,8620;0,210165
570,8262;0,209577
571,7905;0,209117
572,7547;0,208779
573,7189;0,208533
574,6832;0,208335
575,6474;0,208157
576,6116;0,207986
577,5759;0,207818
578,5401;0,207651
579,5043;0,207473
580,4686;0,207268
581,4328;0,207032
582,3970;0,206778
583,3613;0,206535
584,3255;0,206339
585,2897;0,206207
586,2540;0,206136
587,2182;0,206099
588,1824;0,206057
589,1467;0,205976
590,1109;0,205837
591,0751;0,205634
592,0394;0,205375
593,0036;0,205072
593,9678;0,204731
594,9321;0,204353
595,8963;0,203934
596,8605;0,203475
597,8248;0,202984
598,7890;0,20248
599,7532;0,201984
600,7175;0,201512
601,6817;0,201071
602,6459;0,20065
603,6102;0,200231
604,5744;0,199787
605,5386;0,199291
606,5029;0,198722
607,4671;0,198071
608,4313;0,197343
609,3956;0,196558
610,3598;0,19575
611,3240;0,19496
612,2883;0,194223
613,2525;0,193554
614,2167;0,192928
615,1810;0,192276
616,1452;0,191498
617,1094;0,1905
618,0737;0,189247
619,0379;0,187786
620,0021;0,18622
620,9664;0,18466
621,9306;0,183187
622,8948;0,181846
623,8591;0,180657
624,8233;0,179625
625,7875;0,178764
626,7518;0,178052
627,7160;0,177436
628,6802;0,176837
629,6445;0,176181
630,6087;0,175425
631,5729;0,174575
632,5372;0,173682
633,5014;0,172813
634,4656;0,172027
635,4299;0,171356
636,3941;0,170804
637,3583;0,170356
638,3226;0,169983
639,2868;0,169646
640,2510;0,169301
641,2153;0,168909
642,1795;0,168452
643,1437;0,167948
644,1080;0,167442
645,0722;0,166984
646,0364;0,166605
647,0007;0,166297
647,9649;0,166032
648,9291;0,165784
649,8934;0,165558
650,8576;0,165392
651,8218;0,165328
652,7861;0,165388
653,7503;0,165552
654,7145;0,165777
655,6788;0,166011
656,6430;0,166225
657,6072;0,166403
658,5715;0,166521
659,5357;0,166531
660,4999;0,166376
661,4642;0,166039
662,4284;0,165572
663,3926;0,165072
664,3569;0,164646
665,3211;0,164388
666,2853;0,164337
667,2496;0,164337
668,2138;0,16391
669,1780;0,16269
670,1423;0,160966
671,1065;0,159194
672,0707;0,157484
673,0350;0,155735
673,9992;0,153856
674,9634;0,151854
675,9277;0,149843
676,8919;0,147976
677,8561;0,146351
678,8204;0,144969
679,7846;0,143766
680,7488;0,142668
681,7131;0,141626
682,6773;0,140631
683,6415;0,139707
684,6058;0,138892
685,5700;0,138213
686,5342;0,137664
687,4985;0,137201
688,4627;0,136763
689,4269;0,136302
690,3912;0,135805
691,3554;0,135291
692,3196;0,134786
693,2839;0,134307
694,2481;0,133849
695,2123;0,133399
696,1766;0,132944
697,1408;0,132475
698,1050;0,131987
699,0693;0,131471
700,0335;0,130922
700,9977;0,13034
701,9620;0,129733
702,9262;0,12911
703,8904;0,128475
704,8547;0,127826
705,8189;0,127155
706,7831;0,126456
707,7474;0,125734
708,7116;0,125001
709,6758;0,124268
710,6401;0,123533
711,6043;0,122785
712,5685;0,122013
713,5328;0,121229
714,4970;0,120471
715,4612;0,119635
716,4255;0,119078
717,3897;0,118597
718,3539;0,11809
719,3182;0,117424
720,2824;0,116508
721,2466;0,115344
722,2109;0,114036
723,1751;0,112725
724,1393;0,111518
725,1036;0,110457
726,0678;0,109524
727,0320;0,108669
727,9963;0,107846
728,9605;0,107028
729,9247;0,106209
730,8890;0,105394
731,8532;0,104594
732,8174;0,103828
733,7817;0,103111
734,7459;0,102456
735,7101;0,101864
736,6744;0,101322
737,6386;0,100807
738,6028;0,1003
739,5671;0,0997915
740,5313;0,0992867
741,4955;0,0987984
742,4598;0,0983364
743,4240;0,0978981
744,3882;0,0974678
745,3525;0,0970239
746,3167;0,0965501
747,2809;0,0960449
748,2452;0,0955226
749,2094;0,0950049
750,1736;0,0945088
751,1379;0,094037
752,1021;0,0935795
753,0663;0,0931227
754,0306;0,0926613
754,9948;0,0922029
755,9590;0,091761
756,9233;0,0913414
757,8875;0,0909342
758,8517;0,0905187
759,8160;0,0900797
760,7802;0,0896227
761,7444;0,0891755
762,7087;0,0887719
763,6729;0,0884294
764,6371;0,0881346
765,6014;0,0878509
766,5656;0,0875405
767,5298;0,0871882
768,4941;0,0868083
769,4583;0,0864326
770,4225;0,0860897
771,3868;0,0857898
772,3510;0,0855244
773,3152;0,0852772
774,2795;0,0850358
775,2437;0,0847946
776,2079;0,0845513
777,1722;0,0843004
778,1364;0,0840314
779,1006;0,0837333
780,0649;0,0833989
781,0291;0,0830269
781,9933;0,0826209
782,9576;0,0821861
783,9218;0,0817287
784,8860;0,0812565
785,8503;0,0807811
786,8145;0,0803177
787,7787;0,0798837
788,7430;0,0794943
789,7072;0,0791586
790,6714;0,0788758
791,6357;0,0786339
792,5999;0,0784131
793,5641;0,0781917
794,5284;0,0779554
795,4926;0,0777027
796,4568;0,0774457
797,4211;0,0772024
798,3853;0,0769873
799,3495;0,076803
800,3138;0,0766395
801,2780;0,076481
802,2422;0,0763144
803,2065;0,076137
804,1707;0,0759562
805,1349;0,075785
806,0992;0,0756353
807,0634;0,0755137
808,0276;0,0754203
808,9919;0,0753492
809,9561;0,0752896
810,9203;0,0752268
811,8846;0,0751446
812,8488;0,0750303
813,8130;0,0748811
814,7773;0,0747079
815,7415;0,074534
816,7057;0,0743868
817,6700;0,0742884
818,6342;0,0742473
819,5984;0,0742579
820,5627;0,0743039
821,5269;0,0743651
822,4911;0,0744216
823,4554;0,0744552
824,4196;0,0744497
825,3839;0,0743925
826,3481;0,0742784
827,3123;0,0741139
828,2766;0,0739181
829,2408;0,0737177
830,2050;0,0735371
831,1693;0,0733879
832,1335;0,0732628
833,0977;0,0731376
834,0620;0,0729809
835,0262;0,0727681
835,9904;0,0724925
836,9547;0,0721682
837,9189;0,0718236
838,8831;0,0714898
839,8474;0,0711897
840,8116;0,0709339
841,7758;0,0707235
842,7401;0,070557
843,7043;0,0704329
844,6685;0,0703477
845,6328;0,0702906
846,5970;0,0702408
847,5612;0,0701729
848,5255;0,0700685
849,4897;0,0699265
850,4539;0,0697642
851,4182;0,0696084
852,3824;0,0694801
853,3466;0,0693845
854,3109;0,0693109
855,2751;0,0692433
856,2393;0,0691726
857,2036;0,0691023
858,1678;0,0690447
859,1320;0,0690127
860,0963;0,0690128
861,0605;0,0690443
862,0247;0,0691036
862,9890;0,0691891
863,9532;0,0693027
864,9174;0,0694492
865,8817;0,0696343
866,8459;0,0698639
867,8101;0,0701423
868,7744;0,0704686
869,7386;0,0708321
870,7028;0,0712105
871,6671;0,0715741
872,6313;0,071897
873,5955;0,0721685
874,5598;0,0723975
875,5240;0,0726077
876,4882;0,0728255
877,4525;0,0730701
878,4167;0,0733523
879,3809;0,0736799
880,3452;0,0740659
881,3094;0,0745295
882,2736;0,0750904
883,2379;0,075758
884,2021;0,0765252
885,1663;0,0773713
886,1306;0,0782714
887,0948;0,0792075
888,0590;0,0801722
889,0233;0,0811636
889,9875;0,0821744
890,9517;0,0831831
891,9160;0,0841513
892,8802;0,0850314
893,8444;0,0857786
894,8087;0,0863609
895,7729;0,0867631
896,7371;0,0869824
897,7014;0,0870205
898,6656;0,0868781
899,6298;0,0865572
900,5941;0,0860687
901,5583;0,0854421
902,5225;0,0847284
903,4868;0,0839937
904,4510;0,083304
905,4152;0,0827083
906,3795;0,0822273
907,3437;0,081854
908,3079;0,0815635
909,2722;0,0813296
910,2364;0,0811378
911,2007;0,0809907
912,1649;0,080904
913,1292;0,0808976
914,0934;0,0809852
915,0576;0,0811689
916,0219;0,0814386
916,9861;0,0817773
917,9503;0,0821659
918,9146;0,0825884
919,8788;0,0830321
920,8430;0,0834864
921,8073;0,0839405
922,7715;0,0843828
923,7357;0,0848032
924,7000;0,085196
925,6642;0,0855618
926,6284;0,0859066
927,5927;0,0862376
928,5569;0,0865607
929,5211;0,0868797
930,4854;0,0871994
931,4496;0,0875291
932,4138;0,087882
933,3781;0,0882721
934,3423;0,0887086
935,3065;0,089196
936,2708;0,089737
937,2350;0,0903392
938,1992;0,0910165
939,1635;0,0917846
940,1277;0,0926511
941,0919;0,0936102
942,0562;0,0946449
943,0204;0,0957372
943,9846;0,0968801
944,9489;0,0980813
945,9131;0,0993586
946,8773;0,100727
947,8416;0,102191
948,8058;0,103738
949,7700;0,105348
950,7343;0,107
951,6985;0,108678
952,6627;0,110379
953,6270;0,11211
954,5912;0,113882
955,5554;0,11571
956,5197;0,117605
957,4839;0,119572
958,4481;0,121603
959,4124;0,123686
960,3766;0,125803
961,3408;0,127935
962,3051;0,130064
963,2693;0,132178
964,2335;0,134271
965,1978;0,136346
966,1620;0,138415
967,1262;0,1405
968,0905;0,142628
969,0547;0,144829
970,0189;0,147132
970,9832;0,149565
971,9474;0,152157
972,9116;0,154932
973,8759;0,157911
974,8401;0,161103
975,8043;0,164499
976,7686;0,16807
977,7328;0,17177
978,6970;0,175534
979,6613;0,179283
980,6255;0,182926
981,5897;0,186365
982,5540;0,189507
983,5182;0,192281
984,4824;0,194658
985,4467;0,196655
986,4109;0,198336
987,3751;0,199787
988,3394;0,20109
989,3036;0,202304
990,2678;0,203448
991,2321;0,204512
992,1963;0,205466
993,1605;0,206288
994,1248;0,206971
995,0890;0,207535
996,0532;0,208019
997,0175;0,208465
997,9817;0,208912
998,9459;0,209384
999,9102;0,209894
1000,8744;0,21046
1001,8386;0,211111
1002,8029;0,211891
1003,7671;0,212846
1004,7313;0,214009
1005,6956;0,21539
1006,6598;0,216972
1007,6240;0,218722
1008,5883;0,220609
1009,5525;0,222611
1010,5167;0,224717
1011,4810;0,226907
1012,4452;0,22915
1013,4094;0,231396
1014,3737;0,233583
1015,3379;0,235653
1016,3021;0,237567
1017,2664;0,239303
1018,2306;0,240857
1019,1948;0,242235
1020,1591;0,243449
1021,1233;0,244521
1022,0875;0,245483
1023,0518;0,24637
1024,0160;0,247215
1024,9802;0,248031
1025,9445;0,248807
1026,9087;0,249502
1027,8729;0,250059
1028,8372;0,25041
1029,8014;0,250482
1030,7656;0,2502
1031,7299;0,249494
1032,6941;0,248314
1033,6583;0,246649
1034,6226;0,244552
1035,5868;0,242141
1036,5510;0,239589
1037,5153;0,237085
1038,4795;0,234798
1039,4437;0,232852
1040,4080;0,231312
1041,3722;0,23019
1042,3364;0,229449
1043,3007;0,229017
1044,2649;0,228795
1045,2291;0,228667
1046,1934;0,228523
1047,1576;0,22827
1048,1218;0,227845
1049,0861;0,227207
1050,0503;0,226335
1051,0145;0,225214
1051,9788;0,223838
1052,9430;0,222215
1053,9072;0,220367
1054,8715;0,218323
1055,8357;0,216093
1056,7999;0,213654
1057,7642;0,210953
1058,7284;0,207928
1059,6926;0,204553
1060,6569;0,200874
1061,6211;0,197009
1062,5853;0,193124
1063,5496;0,189382
1064,5138;0,185896
1065,4780;0,182711
1066,4423;0,179813
1067,4065;0,177154
1068,3707;0,174681
1069,3350;0,172352
1070,2992;0,170138
1071,2634;0,168007
1072,2277;0,165923
1073,1919;0,163837
1074,1561;0,161704
1075,1204;0,159493
1076,0846;0,1572
1077,0488;0,154856
1078,0131;0,152518
1078,9773;0,150262
1079,9415;0,148158
1080,9058;0,146262
1081,8700;0,144599
1082,8342;0,143168
1083,7985;0,141948
1084,7627;0,14091
1085,7269;0,140029
1086,6912;0,139288
1087,6554;0,13868
1088,6196;0,138202
1089,5839;0,137851
1090,5481;0,137623
1091,5123;0,137507
1092,4766;0,137488
1093,4408;0,137553
1094,4050;0,13769
1095,3693;0,137889
1096,3335;0,138138
1097,2977;0,138424
1098,2620;0,138729
1099,2262;0,139029
1100,1904;0,139296
1101,1547;0,139506
1102,1189;0,139634
1103,0831;0,139662
1104,0474;0,139583
1105,0116;0,139397
1105,9758;0,13912
1106,9401;0,138769
1107,9043;0,138353
1108,8685;0,137854
1109,8328;0,13722
1110,7970;0,13638
1111,7612;0,13527
1112,7255;0,133869
1113,6897;0,132221
1114,6539;0,130429
1115,6182;0,128622
1116,5824;0,126911
1117,5466;0,125356
1118,5109;0,123954
1119,4751;0,122651
1120,4393;0,121373
1121,4036;0,120042
1122,3678;0,118595
1123,3320;0,116984
1124,2963;0,115183
1125,2605;0,113186
1126,2247;0,111007
1127,1890;0,108685
1128,1532;0,106272
1129,1174;0,103821
1130,0817;0,101383
1131,0459;0,098993
1132,0101;0,0966798
1132,9744;0,0944681
1133,9386;0,0923876
1134,9028;0,0904769
1135,8671;0,0887809
1136,8313;0,0873445
1137,7955;0,0862027
1138,7598;0,0853724
1139,7240;0,0848493
1140,6882;0,0846083
1141,6525;0,0846099
1142,6167;0,0848085
1143,5809;0,0851601
1144,5452;0,0856287
1145,5094;0,0861893
1146,4736;0,0868266
1147,4379;0,0875323
1148,4021;0,0883
1149,3663;0,0891196
1150,3306;0,0899731
1151,2948;0,0908336
1152,2590;0,0916668
1153,2233;0,0924349
1154,1875;0,0931004
1155,1517;0,0936275
1156,1160;0,0939791
1157,0802;0,0941113
1158,0444;0,0939694
1159,0087;0,0934888
1159,9729;0,0926026
1160,9371;0,0912572
1161,9014;0,0894279
1162,8656;0,0871321
1163,8298;0,0844319
1164,7941;0,0814273
1165,7583;0,0782417
1166,7225;0,0750038
1167,6868;0,0718323
1168,6510;0,0688236
1169,6152;0,0660454
1170,5795;0,0635346
1171,5437;0,0613012
1172,5079;0,059335
1173,4722;0,0576145
1174,4364;0,0561143
1175,4006;0,0548104
1176,3649;0,0536818
1177,3291;0,0527098
1178,2933;0,0518768
1179,2576;0,0511654
1180,2218;0,0505589
1181,1860;0,0500434
1182,1503;0,0496102
1183,1145;0,0492566
1184,0787;0,0489855
1185,0430;0,0488021
1186,0072;0,0487102
1186,9714;0,0487098
1187,9357;0,0487981
1188,8999;0,0489719
1189,8641;0,0492311
1190,8284;0,0495794
1191,7926;0,0500209
1192,7568;0,0505555
1193,7211;0,0511747
1194,6853;0,051861
1195,6495;0,052591
1196,6138;0,0533412
1197,5780;0,0540924
1198,5422;0,0548336
1199,5065;0,0555168
1200,4707;0,0562391
1201,4349;0,0569529
1202,3992;0,0576548
1203,3634;0,0583327
1204,3276;0,0589674
1205,2919;0,0595402
1206,2561;0,0600423
1207,2203;0,0604833
1208,1846;0,0608927
1209,1488;0,0613129
1210,1130;0,0617884
1211,0773;0,062354
1212,0415;0,0630272
1213,0057;0,0638069
1213,9700;0,0646775
1214,9342;0,0656147
1215,8984;0,0665921
1216,8627;0,0675858
1217,8269;0,0685769
1218,7911;0,0695537
1219,7554;0,0705098
1220,7196;0,0714401
1221,6838;0,0723371
1222,6481;0,0731903
1223,6123;0,0739884
1224,5765;0,0747253
1225,5408;0,0754045
1226,5050;0,0760378
1227,4692;0,0766402
1228,4335;0,0772212
1229,3977;0,0777796
1230,3619;0,0783035
1231,3262;0,0787748
1232,2904;0,0791759
1233,2546;0,0794963
1234,2189;0,0797343
1235,1831;0,0798968
1236,1473;0,079997
1237,1116;0,0800505
1238,0758;0,0800711
1239,0400;0,0800681
1240,0043;0,0800438
1240,9685;0,0799946
1241,9327;0,0799123
1242,8970;0,0797877
1243,8612;0,0796122
1244,8254;0,07938
1245,7897;0,079089
1246,7539;0,0787422
1247,7181;0,0783486
1248,6824;0,077922
1249,6466;0,0774786
1250,6108;0,0770328
1251,5751;0,0765947
1252,5393;0,0761691
1253,5035;0,0757576
1254,4678;0,0753596
1255,4320;0,0749729
1256,3962;0,0745924
1257,3605;0,0742095
1258,3247;0,0738126
1259,2889;0,0733902
1260,2532;0,0729347
1261,2174;0,0724439
1262,1816;0,0719201
1263,1459;0,0713671
1264,1101;0,0707872
1265,0743;0,0701806
1266,0386;0,0695462
1267,0028;0,0688835
1267,9670;0,0681949
1268,9313;0,0674858
1269,8955;0,0667635
1270,8597;0,0660353
1271,8240;0,0653054
1272,7882;0,0645754
1273,7524;0,0638463
1274,7167;0,063123
1275,6809;0,0624151
1276,6451;0,0617344
1277,6094;0,0610887
1278,5736;0,0604762
1279,5378;0,059885
1280,5021;0,0592994
1281,4663;0,0587094
1282,4305;0,0581167
1283,3948;0,0575336
1284,3590;0,0569777
1285,3232;0,0564647
1286,2875;0,0560061
1287,2517;0,0556102
1288,2159;0,0552841
1289,1802;0,0550337
1290,1444;0,0548619
1291,1086;0,0547676
1292,0729;0,0547472
1293,0371;0,0547989
1294,0013;0,0549248
1294,9656;0,0551301
1295,9298;0,0554183
1296,8940;0,0557867
1297,8583;0,0562264
1298,8225;0,0567257
1299,7867;0,0572759
1300,7510;0,0578732
1301,7152;0,0585188
1302,6794;0,0592134
1303,6437;0,0599547
1304,6079;0,0607367
1305,5721;0,0615515
1306,5364;0,0623918
1307,5006;0,0632523
1308,4648;0,0641287
1309,4291;0,0650151
1310,3933;0,0658992
1311,3575;0,0667602
1312,3218;0,067568
1313,2860;0,0682872
1314,2502;0,0688824
1315,2145;0,0693222
1316,1787;0,0695815
1317,1429;0,069646
1318,1072;0,0695209
1319,0714;0,0692375
1320,0356;0,0688504
1320,9999;0,0684213
1321,9641;0,0679997
1322,9283;0,0676128
1323,8926;0,0672696
1324,8568;0,0669706
1325,8210;0,0667159
1326,7853;0,066507
1327,7495;0,0663433
1328,7137;0,0662173
1329,6780;0,0661132
1330,6422;0,0660096
1331,6064;0,0658861
1332,5707;0,0657284
1333,5349;0,0655287
1334,4991;0,0652802
1335,4634;0,0649686
1336,4276;0,0645685
1337,3918;0,0640516
1338,3561;0,0634085
1339,3203;0,0626734
1340,2845;0,0619221
1341,2488;0,061235
1342,2130;0,0606582
1343,1772;0,0601976
1344,1415;0,0598383
1345,1057;0,0595641
1346,0699;0,0593666
1347,0342;0,0592453
1347,9984;0,0592041
1348,9626;0,0592484
1349,9269;0,0593804
1350,8911;0,0595957
1351,8553;0,0598823
1352,8196;0,0602242
1353,7838;0,0606079
1354,7480;0,0610283
1355,7123;0,0614877
1356,6765;0,061989
1357,6407;0,0625282
1358,6050;0,0630919
1359,5692;0,0636601
1360,5334;0,0642094
