TITLE;
DATA TYPE;INFRARED SPECTRUM
ORIGIN;JASCO
OWNER;
DATE;25/03/18
TIME;13:06:16
SPECTROMETER/DATA SYSTEM;
LOCALE;9226
RESOLUTION;
DELTAX;0,964233
XUNITS;1/CM
YUNITS;ABSORBANCE
FIRSTX;  399,1927
LASTX; 4000,6047
NPOINTS;    3736
FIRSTY;     0,20572
MAXY;     0,25260
MINY;     0,01225
XYDATA
399,1927;0,20572
400,1569;0,205635
401,1211;0,204391
402,0854;0,202704
403,0496;0,201016
404,0138;0,199535
404,9781;0,198351
405,9423;0,19751
406,9065;0,197054
407,8708;0,197005
408,8350;0,197338
409,7992;0,197952
410,7635;0,198684
411,7277;0,199361
412,6919;0,199864
413,6562;0,200148
414,6204;0,20019
415,5846;0,199942
416,5489;0,199338
417,5131;0,198419
418,4773;0,197542
419,4416;0,197321
420,4058;0,198108
421,3700;0,199729
422,3343;0,201785
423,2985;0,203948
424,2627;0,205985
425,2270;0,207716
426,1912;0,209007
427,1554;0,209797
428,1197;0,210105
429,0839;0,210019
430,0481;0,209674
431,0124;0,209234
431,9766;0,208856
432,9408;0,208647
433,9051;0,208615
434,8693;0,20868
435,8335;0,208713
436,7978;0,208612
437,7620;0,208353
438,7262;0,207979
439,6905;0,207568
440,6547;0,207184
441,6189;0,206852
442,5832;0,20655
443,5474;0,206224
444,5116;0,205814
445,4759;0,205283
446,4401;0,204623
447,4043;0,203841
448,3686;0,202953
449,3328;0,201996
450,2970;0,201044
451,2613;0,20022
452,2255;0,199658
453,1897;0,19946
454,1540;0,199644
455,1182;0,200131
456,0824;0,200744
457,0467;0,201238
458,0109;0,201386
458,9751;0,201089
459,9394;0,20042
460,9036;0,199543
461,8678;0,198612
462,8321;0,197742
463,7963;0,197016
464,7605;0,196501
465,7248;0,196225
466,6890;0,19615
467,6532;0,196172
468,6175;0,196176
469,5817;0,196096
470,5459;0,195977
471,5102;0,195963
472,4744;0,196225
473,4386;0,196823
474,4029;0,197643
475,3671;0,198461
476,3313;0,19907
477,2956;0,199378
478,2598;0,199424
479,2240;0,199344
480,1883;0,199298
481,1525;0,199398
482,1167;0,199687
483,0810;0,200149
484,0452;0,200751
485,0094;0,201453
485,9737;0,202207
486,9379;0,202938
487,9021;0,203547
488,8664;0,203938
489,8306;0,204061
490,7948;0,203955
491,7591;0,203747
492,7233;0,203613
493,6875;0,203688
494,6518;0,204014
495,6160;0,204534
496,5802;0,205134
497,5445;0,205697
498,5087;0,206136
499,4729;0,206412
500,4372;0,206536
501,4014;0,206571
502,3656;0,206611
503,3299;0,20674
504,2941;0,206992
505,2583;0,207334
506,2226;0,207694
507,1868;0,20801
508,1510;0,20828
509,1153;0,20857
510,0795;0,208985
511,0437;0,209607
512,0080;0,210434
512,9722;0,211379
513,9365;0,212294
514,9007;0,213034
515,8649;0,213512
516,8292;0,213731
517,7934;0,213779
518,7576;0,213764
519,7219;0,213746
520,6861;0,213709
521,6503;0,21359
522,6146;0,213337
523,5788;0,212951
524,5430;0,212498
525,5073;0,212086
526,4715;0,211805
527,4357;0,211659
528,4000;0,21157
529,3642;0,211422
530,3284;0,211134
531,2927;0,210701
532,2569;0,210186
533,2211;0,209683
534,1854;0,209264
535,1496;0,20894
536,1138;0,208674
537,0781;0,208427
538,0423;0,208195
539,0065;0,208028
539,9708;0,20799
540,9350;0,208117
541,8992;0,208384
542,8635;0,20872
543,8277;0,209048
544,7919;0,209329
545,7562;0,209576
546,7204;0,209847
547,6846;0,210203
548,6489;0,210681
549,6131;0,211284
550,5773;0,211989
551,5416;0,212767
552,5058;0,213583
553,4700;0,214399
554,4343;0,215165
555,3985;0,215816
556,3627;0,216267
557,3270;0,216423
558,2912;0,216193
559,2554;0,215511
560,2197;0,21437
561,1839;0,212845
562,1481;0,211095
563,1124;0,209316
564,0766;0,207688
565,0408;0,206314
566,0051;0,205205
566,9693;0,204312
567,9335;0,203562
568,8978;0,202912
569,8620;0,202358
570,8262;0,201919
571,7905;0,201602
572,7547;0,201382
573,7189;0,201203
574,6832;0,201
575,6474;0,200725
576,6116;0,200373
577,5759;0,19998
578,5401;0,199608
579,5043;0,199318
580,4686;0,199152
581,4328;0,19912
582,3970;0,199199
583,3613;0,199336
584,3255;0,19946
585,2897;0,199503
586,2540;0,199427
587,2182;0,19924
588,1824;0,198987
589,1467;0,198733
590,1109;0,198528
591,0751;0,198381
592,0394;0,198254
593,0036;0,198085
593,9678;0,197822
594,9321;0,197448
595,8963;0,196987
596,8605;0,196483
597,8248;0,195982
598,7890;0,195513
599,7532;0,195091
600,7175;0,194714
601,6817;0,194383
602,6459;0,194103
603,6102;0,193871
604,5744;0,193666
605,5386;0,193432
606,5029;0,193092
607,4671;0,192573
608,4313;0,191847
609,3956;0,190949
610,3598;0,189965
611,3240;0,188986
612,2883;0,188065
613,2525;0,187197
614,2167;0,186335
615,1810;0,185427
616,1452;0,184443
617,1094;0,183381
618,0737;0,18225
619,0379;0,181044
620,0021;0,179752
620,9664;0,178374
621,9306;0,176949
622,8948;0,175559
623,8591;0,174303
624,8233;0,173263
625,7875;0,172426
626,7518;0,171735
627,7160;0,171103
628,6802;0,170455
629,6445;0,169744
630,6087;0,168948
631,5729;0,168061
632,5372;0,167083
633,5014;0,166035
634,4656;0,164966
635,4299;0,163947
636,3941;0,163039
637,3583;0,162266
638,3226;0,161602
639,2868;0,160993
640,2510;0,160383
641,2153;0,159746
642,1795;0,159085
643,1437;0,158415
644,1080;0,157743
645,0722;0,157065
646,0364;0,156374
647,0007;0,155679
647,9649;0,155014
648,9291;0,154426
649,8934;0,153955
650,8576;0,153614
651,8218;0,153402
652,7861;0,153316
653,7503;0,153371
654,7145;0,153589
655,6788;0,153973
656,6430;0,154473
657,6072;0,154987
658,5715;0,155387
659,5357;0,155572
660,4999;0,155525
661,4642;0,155331
662,4284;0,155131
663,3926;0,155034
664,3569;0,155034
665,3211;0,154951
666,2853;0,154403
667,2496;0,152952
668,2138;0,150639
669,1780;0,148278
670,1423;0,146544
671,1065;0,145332
672,0707;0,144262
673,0350;0,143062
673,9992;0,141596
674,9634;0,139858
675,9277;0,137969
676,8919;0,136106
677,8561;0,134402
678,8204;0,132893
679,7846;0,131567
680,7488;0,130418
681,7131;0,129458
682,6773;0,128691
683,6415;0,128094
684,6058;0,127617
685,5700;0,127208
686,5342;0,126829
687,4985;0,126465
688,4627;0,126116
689,4269;0,125801
690,3912;0,125545
691,3554;0,125362
692,3196;0,125244
693,2839;0,125155
694,2481;0,125045
695,2123;0,124876
696,1766;0,124632
697,1408;0,124324
698,1050;0,123979
699,0693;0,123621
700,0335;0,123259
700,9977;0,12289
701,9620;0,122501
702,9262;0,12208
703,8904;0,121624
704,8547;0,121137
705,8189;0,12063
706,7831;0,120113
707,7474;0,119589
708,7116;0,119047
709,6758;0,118474
710,6401;0,11786
711,6043;0,117205
712,5685;0,116522
713,5328;0,115824
714,4970;0,115112
715,4612;0,114601
716,4255;0,113767
717,3897;0,112851
718,3539;0,111868
719,3182;0,110861
720,2824;0,109882
721,2466;0,108965
722,2109;0,108111
723,1751;0,10729
724,1393;0,10647
725,1036;0,105627
726,0678;0,104755
727,0320;0,103861
727,9963;0,102961
728,9605;0,10207
729,9247;0,101205
730,8890;0,100381
731,8532;0,0996119
732,8174;0,0989013
733,7817;0,0982407
734,7459;0,0976132
735,7101;0,097004
736,6744;0,0964096
737,6386;0,0958385
738,6028;0,0953025
739,5671;0,0948062
740,5313;0,0943408
741,4955;0,0938907
742,4598;0,0934434
743,4240;0,0929981
744,3882;0,0925625
745,3525;0,0921426
746,3167;0,0917332
747,2809;0,0913168
748,2452;0,0908751
749,2094;0,0904021
750,1736;0,08991
751,1379;0,0894226
752,1021;0,0889586
753,0663;0,0885187
754,0306;0,0880841
754,9948;0,08763
755,9590;0,0871434
756,9233;0,0866333
757,8875;0,0861261
758,8517;0,085651
759,8160;0,0852247
760,7802;0,0848461
761,7444;0,0845013
762,7087;0,0841731
763,6729;0,0838487
764,6371;0,0835216
765,6014;0,0831901
766,5656;0,0828569
767,5298;0,0825284
768,4941;0,0822132
769,4583;0,0819181
770,4225;0,0816417
771,3868;0,0813723
772,3510;0,0810928
773,3152;0,0807914
774,2795;0,0804708
775,2437;0,0801497
776,2079;0,079853
777,1722;0,0795976
778,1364;0,079381
779,1006;0,0791808
780,0649;0,0789661
781,0291;0,0787128
781,9933;0,0784131
782,9576;0,0780751
783,9218;0,0777138
784,8860;0,0773409
785,8503;0,0769618
786,8145;0,0765802
787,7787;0,0762056
788,7430;0,075854
789,7072;0,0755411
790,6714;0,0752721
791,6357;0,0750364
792,5999;0,0748134
793,5641;0,0745854
794,5284;0,0743484
795,4926;0,0741121
796,4568;0,0738904
797,4211;0,07369
798,3853;0,0735057
799,3495;0,0733263
800,3138;0,0731438
801,2780;0,072958
802,2422;0,0727745
803,2065;0,0725975
804,1707;0,0724264
805,1349;0,0722579
806,0992;0,0720926
807,0634;0,0719388
808,0276;0,0718091
808,9919;0,0717139
809,9561;0,0716542
810,9203;0,0716201
811,8846;0,0715954
812,8488;0,0715645
813,8130;0,0715179
814,7773;0,0714546
815,7415;0,071381
816,7057;0,0713074
817,6700;0,0712445
818,6342;0,0711986
819,5984;0,0711689
820,5627;0,0711464
821,5269;0,0711154
822,4911;0,0710583
823,4554;0,0709607
824,4196;0,0708174
825,3839;0,0706347
826,3481;0,0704288
827,3123;0,0702201
828,2766;0,0700241
829,2408;0,0698442
830,2050;0,069671
831,1693;0,069489
832,1335;0,0692875
833,0977;0,0690677
834,0620;0,0688412
835,0262;0,0686208
835,9904;0,0684109
836,9547;0,0682031
837,9189;0,0679832
838,8831;0,0677408
839,8474;0,0674764
840,8116;0,0672001
841,7758;0,066926
842,7401;0,0666651
843,7043;0,0664252
844,6685;0,0662118
845,6328;0,0660285
846,5970;0,0658743
847,5612;0,0657394
848,5255;0,0656071
849,4897;0,0654614
850,4539;0,0652968
851,4182;0,0651221
852,3824;0,0649545
853,3466;0,0648074
854,3109;0,0646821
855,2751;0,0645699
856,2393;0,0644627
857,2036;0,0643639
858,1678;0,064289
859,1320;0,0642565
860,0963;0,0642744
861,0605;0,0643336
862,0247;0,0644133
862,9890;0,0644952
863,9532;0,0645754
864,9174;0,0646673
865,8817;0,0647936
866,8459;0,0649729
867,8101;0,0652102
868,7744;0,065496
869,7386;0,0658131
870,7028;0,066145
871,6671;0,0664818
872,6313;0,0668198
873,5955;0,0671579
874,5598;0,0674946
875,5240;0,0678287
876,4882;0,068162
877,4525;0,0685025
878,4167;0,0688642
879,3809;0,0692636
880,3452;0,069715
881,3094;0,0702275
882,2736;0,0708068
883,2379;0,0714578
884,2021;0,0721873
885,1663;0,0730019
886,1306;0,0739029
887,0948;0,07488
888,0590;0,0759103
889,0233;0,0769615
889,9875;0,0779992
890,9517;0,0789935
891,9160;0,0799197
892,8802;0,0807546
893,8444;0,0814716
894,8087;0,0820395
895,7729;0,0824267
896,7371;0,0826102
897,7014;0,0825837
898,6656;0,0823603
899,6298;0,0819687
900,5941;0,0814449
901,5583;0,0808251
902,5225;0,0801413
903,4868;0,0794234
904,4510;0,078701
905,4152;0,0780049
906,3795;0,0773636
907,3437;0,0767975
908,3079;0,0763147
909,2722;0,075912
910,2364;0,0755819
911,2007;0,075321
912,1649;0,0751347
913,1292;0,0750349
914,0934;0,0750315
915,0576;0,0751239
916,0219;0,0752974
916,9861;0,0755285
917,9503;0,0757943
918,9146;0,0760809
919,8788;0,0763847
920,8430;0,0767073
921,8073;0,0770488
922,7715;0,0774027
923,7357;0,0777577
924,7000;0,0781018
925,6642;0,0784269
926,6284;0,0787302
927,5927;0,0790138
928,5569;0,0792837
929,5211;0,0795514
930,4854;0,0798335
931,4496;0,0801497
932,4138;0,0805153
933,3781;0,0809352
934,3423;0,0814019
935,3065;0,0819018
936,2708;0,0824276
937,2350;0,0829869
938,1992;0,0836033
939,1635;0,0843057
940,1277;0,0851155
941,0919;0,0860381
942,0562;0,0870648
943,0204;0,0881813
943,9846;0,0893765
944,9489;0,0906444
945,9131;0,0919797
946,8773;0,0933728
947,8416;0,09481
948,8058;0,0962797
949,7700;0,0977794
950,7343;0,0993177
951,6985;0,100908
952,6627;0,102561
953,6270;0,104274
954,5912;0,106036
955,5554;0,107832
956,5197;0,10965
957,4839;0,111486
958,4481;0,113342
959,4124;0,115223
960,3766;0,117134
961,3408;0,11908
962,3051;0,121063
963,2693;0,123079
964,2335;0,125121
965,1978;0,127178
966,1620;0,129246
967,1262;0,131333
968,0905;0,133464
969,0547;0,135678
970,0189;0,138013
970,9832;0,140502
971,9474;0,143167
972,9116;0,146024
973,8759;0,14909
974,8401;0,152381
975,8043;0,155906
976,7686;0,159651
977,7328;0,16357
978,6970;0,167585
979,6613;0,171597
980,6255;0,175501
981,5897;0,1792
982,5540;0,182616
983,5182;0,185694
984,4824;0,188409
985,4467;0,190766
986,4109;0,192804
987,3751;0,194585
988,3394;0,196176
989,3036;0,197632
990,2678;0,198981
991,2321;0,200219
992,1963;0,201324
993,1605;0,202274
994,1248;0,203063
995,0890;0,203713
996,0532;0,204261
997,0175;0,204753
997,9817;0,205226
998,9459;0,205708
999,9102;0,206221
1000,8744;0,206796
1001,8386;0,207476
1002,8029;0,208316
1003,7671;0,209373
1004,7313;0,210681
1005,6956;0,212251
1006,6598;0,214065
1007,6240;0,216088
1008,5883;0,218281
1009,5525;0,220607
1010,5167;0,223025
1011,4810;0,225487
1012,4452;0,22794
1013,4094;0,230333
1014,3737;0,232625
1015,3379;0,234799
1016,3021;0,236853
1017,2664;0,238789
1018,2306;0,240601
1019,1948;0,242273
1020,1591;0,243791
1021,1233;0,245154
1022,0875;0,24638
1023,0518;0,247503
1024,0160;0,248552
1024,9802;0,249539
1025,9445;0,250455
1026,9087;0,251267
1027,8729;0,251935
1028,8372;0,252404
1029,8014;0,252605
1030,7656;0,252454
1031,7299;0,251858
1032,6941;0,250742
1033,6583;0,249081
1034,6226;0,246922
1035,5868;0,244388
1036,5510;0,241658
1037,5153;0,238937
1038,4795;0,236416
1039,4437;0,234255
1040,4080;0,23256
1041,3722;0,231381
1042,3364;0,2307
1043,3007;0,230436
1044,2649;0,230461
1045,2291;0,230625
1046,1934;0,230792
1047,1576;0,230859
1048,1218;0,230762
1049,0861;0,230457
1050,0503;0,229909
1051,0145;0,229085
1051,9788;0,227961
1052,9430;0,22654
1053,9072;0,224846
1054,8715;0,222913
1055,8357;0,220748
1056,7999;0,218318
1057,7642;0,215555
1058,7284;0,212388
1059,6926;0,208796
1060,6569;0,204836
1061,6211;0,200643
1062,5853;0,196399
1063,5496;0,192284
1064,5138;0,188426
1065,4780;0,184892
1066,4423;0,18168
1067,4065;0,178748
1068,3707;0,176038
1069,3350;0,173487
1070,2992;0,171042
1071,2634;0,168661
1072,2277;0,166304
1073,1919;0,163933
1074,1561;0,161517
1075,1204;0,159031
1076,0846;0,156476
1077,0488;0,153882
1078,0131;0,151311
1078,9773;0,148845
1079,9415;0,146567
1080,9058;0,144537
1081,8700;0,142782
1082,8342;0,141298
1083,7985;0,140061
1084,7627;0,139042
1085,7269;0,138219
1086,6912;0,137569
1087,6554;0,137072
1088,6196;0,136701
1089,5839;0,136434
1090,5481;0,136253
1091,5123;0,136152
1092,4766;0,136132
1093,4408;0,136195
1094,4050;0,136338
1095,3693;0,136546
1096,3335;0,136797
1097,2977;0,137068
1098,2620;0,137339
1099,2262;0,137589
1100,1904;0,137798
1101,1547;0,137945
1102,1189;0,138014
1103,0831;0,137994
1104,0474;0,137888
1105,0116;0,137709
1105,9758;0,137474
1106,9401;0,137193
1107,9043;0,136852
1108,8685;0,136412
1109,8328;0,135806
1110,7970;0,134959
1111,7612;0,133816
1112,7255;0,132363
1113,6897;0,130647
1114,6539;0,128768
1115,6182;0,126851
1116,5824;0,125009
1117,5466;0,123315
1118,5109;0,121778
1119,4751;0,120357
1120,4393;0,118975
1121,4036;0,117546
1122,3678;0,115992
1123,3320;0,114261
1124,2963;0,11233
1125,2605;0,110206
1126,2247;0,107924
1127,1890;0,105534
1128,1532;0,103088
1129,1174;0,100634
1130,0817;0,0982042
1131,0459;0,0958193
1132,0101;0,0934989
1132,9744;0,0912688
1133,9386;0,089167
1134,9028;0,0872429
1135,8671;0,0855506
1136,8313;0,0841398
1137,7955;0,0830476
1138,7598;0,0822915
1139,7240;0,0818676
1140,6882;0,0817514
1141,6525;0,0819028
1142,6167;0,082273
1143,5809;0,0828113
1144,5452;0,0834708
1145,5094;0,0842124
1146,4736;0,0850069
1147,4379;0,0858351
1148,4021;0,0866869
1149,3663;0,0875558
1150,3306;0,0884329
1151,2948;0,0892998
1152,2590;0,0901271
1153,2233;0,0908768
1154,1875;0,0915084
1155,1517;0,0919838
1156,1160;0,0922654
1157,0802;0,0923098
1158,0444;0,0920614
1159,0087;0,0914515
1159,9729;0,090408
1160,9371;0,0888739
1161,9014;0,0868269
1162,8656;0,0842928
1163,8298;0,0813477
1164,7941;0,0781072
1165,7583;0,0747087
1166,7225;0,0712909
1167,6868;0,067976
1168,6510;0,0648571
1169,6152;0,0619923
1170,5795;0,0594068
1171,5437;0,0571005
1172,5079;0,0550586
1173,4722;0,0532618
1174,4364;0,0516916
1175,4006;0,0503316
1176,3649;0,0491658
1177,3291;0,0481775
1178,2933;0,0473478
1179,2576;0,0466564
1180,2218;0,0460819
1181,1860;0,0456025
1182,1503;0,0451983
1183,1145;0,0448548
1184,0787;0,0445668
1185,0430;0,0443396
1186,0072;0,0441871
1186,9714;0,0441259
1187,9357;0,0441692
1188,8999;0,0443224
1189,8641;0,0445838
1190,8284;0,0449464
1191,7926;0,0454006
1192,7568;0,0459349
1193,7211;0,046535
1194,6853;0,0471828
1195,6495;0,0478584
1196,6138;0,0485437
1197,5780;0,0492253
1198,5422;0,0498956
1199,5065;0,050581
1200,4707;0,0512151
1201,4349;0,0518254
1202,3992;0,0524034
1203,3634;0,0529393
1204,3276;0,0534246
1205,2919;0,0538542
1206,2561;0,0542293
1207,2203;0,0545591
1208,1846;0,0548637
1209,1488;0,0551739
1210,1130;0,0555277
1211,0773;0,0559618
1212,0415;0,0565013
1213,0057;0,0571517
1213,9700;0,0578985
1214,9342;0,0587141
1215,8984;0,059569
1216,8627;0,0604396
1217,8269;0,0613115
1218,7911;0,0621759
1219,7554;0,0630266
1220,7196;0,063857
1221,6838;0,0646612
1222,6481;0,0654344
1223,6123;0,0661731
1224,5765;0,0668735
1225,5408;0,0675309
1226,5050;0,068142
1227,4692;0,0687074
1228,4335;0,0692333
1229,3977;0,0697268
1230,3619;0,0701894
1231,3262;0,0706107
1232,2904;0,0709696
1233,2546;0,0712435
1234,2189;0,0714208
1235,1831;0,0715095
1236,1473;0,0715344
1237,1116;0,0715268
1238,0758;0,0715101
1239,0400;0,071492
1240,0043;0,0714659
1240,9685;0,0714186
1241,9327;0,0713392
1242,8970;0,0712225
1243,8612;0,0710671
1244,8254;0,0708717
1245,7897;0,0706344
1246,7539;0,070354
1247,7181;0,0700337
1248,6824;0,0696824
1249,6466;0,0693131
1250,6108;0,0689397
1251,5751;0,0685738
1252,5393;0,0682232
1253,5035;0,0678918
1254,4678;0,0675792
1255,4320;0,0672805
1256,3962;0,0669865
1257,3605;0,0666865
1258,3247;0,0663709
1259,2889;0,0660341
1260,2532;0,0656753
1261,2174;0,0652961
1262,1816;0,0648971
1263,1459;0,0644761
1264,1101;0,0640283
1265,0743;0,0635488
1266,0386;0,0630354
1267,0028;0,0624898
1267,9670;0,0619171
1268,9313;0,0613243
1269,8955;0,0607185
1270,8597;0,0601046
1271,8240;0,0594862
1272,7882;0,0588661
1273,7524;0,0582494
1274,7167;0,0576441
1275,6809;0,0570602
1276,6451;0,0565058
1277,6094;0,0559815
1278,5736;0,0554777
1279,5378;0,0549767
1280,5021;0,05446
1281,4663;0,0539171
1282,4305;0,0533512
1283,3948;0,0527789
1284,3590;0,0522249
1285,3232;0,0517159
1286,2875;0,0512759
1287,2517;0,0509232
1288,2159;0,050668
1289,1802;0,0505108
1290,1444;0,0504419
1291,1086;0,0504449
1292,0729;0,0505036
1293,0371;0,050608
1294,0013;0,0507583
1294,9656;0,050963
1295,9298;0,051234
1296,8940;0,0515798
1297,8583;0,0520027
1298,8225;0,0524977
1299,7867;0,0530555
1300,7510;0,0536647
1301,7152;0,0543139
1302,6794;0,054995
1303,6437;0,0557043
1304,6079;0,0564423
1305,5721;0,0572105
1306,5364;0,0580074
1307,5006;0,0588262
1308,4648;0,0596566
1309,4291;0,0604891
1310,3933;0,0613156
1311,3575;0,0621269
1312,3218;0,0629058
1313,2860;0,0636231
1314,2502;0,0642399
1315,2145;0,0647171
1316,1787;0,0650256
1317,1429;0,0651558
1318,1072;0,0651215
1319,0714;0,0649588
1320,0356;0,0647154
1320,9999;0,0644375
1321,9641;0,0641582
1322,9283;0,0638958
1323,8926;0,0636593
1324,8568;0,0634534
1325,8210;0,0632811
1326,7853;0,0631433
1327,7495;0,0630353
1328,7137;0,0629459
1329,6780;0,0628579
1330,6422;0,0627501
1331,6064;0,0626023
1332,5707;0,0623984
1333,5349;0,0621261
1334,4991;0,0617739
1335,4634;0,0613277
1336,4276;0,0607742
1337,3918;0,060115
1338,3561;0,0593868
1339,3203;0,0586623
1340,2845;0,0580197
1341,2488;0,0574992
1342,2130;0,0570917
1343,1772;0,0567616
1344,1415;0,0564755
1345,1057;0,0562195
1346,0699;0,056002
1347,0342;0,0558469
1347,9984;0,0557811
1348,9626;0,0558206
1349,9269;0,0559637
1350,8911;0,0561918
1351,8553;0,0564777
1352,8196;0,0567959
1353,7838;0,0571321
1354,7480;0,0574855
1355,7123;0,0578637
1356,6765;0,0582718
1357,6407;0,0587053
1358,6050;0,0591498
1359,5692;0,0595872
