TITLE;
DATA TYPE;INFRARED SPECTRUM
ORIGIN;JASCO
OWNER;
DATE;25/03/18
TIME;14:00:54
SPECTROMETER/DATA SYSTEM;
LOCALE;9226
RESOLUTION;
DELTAX;0,964233
XUNITS;1/CM
YUNITS;ABSORBANCE
FIRSTX;  399,1927
LASTX; 4000,6047
NPOINTS;    3736
FIRSTY;     0,12038
MAXY;     0,17412
MINY;     0,01234
XYDATA
399,1927;0,120384
400,1569;0,121363
401,1211;0,120584
402,0854;0,118796
403,0496;0,11679
404,0138;0,115208
404,9781;0,114445
405,9423;0,114572
406,9065;0,115335
407,8708;0,116318
408,8350;0,117186
409,7992;0,117834
410,7635;0,118373
411,7277;0,118986
412,6919;0,119774
413,6562;0,12071
414,6204;0,121697
415,5846;0,122657
416,5489;0,123586
417,5131;0,124558
418,4773;0,12567
419,4416;0,126902
420,4058;0,12806
421,3700;0,128919
422,3343;0,129331
423,2985;0,129233
424,2627;0,128652
425,2270;0,127746
426,1912;0,12679
427,1554;0,126082
428,1197;0,125816
429,0839;0,126016
430,0481;0,126563
431,0124;0,127256
431,9766;0,127884
432,9408;0,128277
433,9051;0,128348
434,8693;0,12811
435,8335;0,127678
436,7978;0,127235
437,7620;0,126954
438,7262;0,126925
439,6905;0,127115
440,6547;0,127393
441,6189;0,127584
442,5832;0,12755
443,5474;0,127261
444,5116;0,126801
445,4759;0,126294
446,4401;0,125828
447,4043;0,125428
448,3686;0,125087
449,3328;0,124802
450,2970;0,124584
451,2613;0,124446
452,2255;0,124395
453,1897;0,124431
454,1540;0,124568
455,1182;0,124823
456,0824;0,125181
457,0467;0,125535
458,0109;0,125683
458,9751;0,125436
459,9394;0,124762
460,9036;0,123808
461,8678;0,122796
462,8321;0,121921
463,7963;0,121299
464,7605;0,120965
465,7248;0,120889
466,6890;0,121011
467,6532;0,121271
468,6175;0,121612
469,5817;0,121973
470,5459;0,122283
471,5102;0,122476
472,4744;0,12253
473,4386;0,122481
474,4029;0,12239
475,3671;0,122294
476,3313;0,122199
477,2956;0,122109
478,2598;0,12205
479,2240;0,122079
480,1883;0,122257
481,1525;0,122606
482,1167;0,123091
483,0810;0,123626
484,0452;0,124109
485,0094;0,12446
485,9737;0,124656
486,9379;0,124721
487,9021;0,124716
488,8664;0,124709
489,8306;0,12477
490,7948;0,12495
491,7591;0,125269
492,7233;0,125698
493,6875;0,126171
494,6518;0,126618
495,6160;0,126986
496,5802;0,12725
497,5445;0,127406
498,5087;0,127465
499,4729;0,127457
500,4372;0,127439
501,4014;0,127491
502,3656;0,127684
503,3299;0,128033
504,2941;0,128471
505,2583;0,12888
506,2226;0,129157
507,1868;0,129266
508,1510;0,129271
509,1153;0,129298
510,0795;0,12947
511,0437;0,129833
512,0080;0,130347
512,9722;0,130925
513,9365;0,131493
514,9007;0,132029
515,8649;0,132559
516,8292;0,133108
517,7934;0,133651
518,7576;0,134103
519,7219;0,134374
520,6861;0,134444
521,6503;0,134374
522,6146;0,134267
523,5788;0,134212
524,5430;0,134242
525,5073;0,134325
526,4715;0,134395
527,4357;0,134406
528,4000;0,134363
529,3642;0,134305
530,3284;0,134269
531,2927;0,134264
532,2569;0,134267
533,2211;0,134243
534,1854;0,134172
535,1496;0,134055
536,1138;0,133911
537,0781;0,133764
538,0423;0,133633
539,0065;0,133531
539,9708;0,133467
540,9350;0,133447
541,8992;0,133473
542,8635;0,133542
543,8277;0,133653
544,7919;0,133805
545,7562;0,134
546,7204;0,134236
547,6846;0,134504
548,6489;0,134791
549,6131;0,135081
550,5773;0,135368
551,5416;0,135661
552,5058;0,135979
553,4700;0,136341
554,4343;0,136753
555,3985;0,137193
556,3627;0,137611
557,3270;0,137935
558,2912;0,138099
559,2554;0,138056
560,2197;0,137797
561,1839;0,137351
562,1481;0,136777
563,1124;0,136146
564,0766;0,135522
565,0408;0,134948
566,0051;0,134434
566,9693;0,133967
567,9335;0,133522
568,8978;0,133084
569,8620;0,132663
570,8262;0,13229
571,7905;0,132006
572,7547;0,13184
573,7189;0,131793
574,6832;0,131833
575,6474;0,131907
576,6116;0,131957
577,5759;0,131948
578,5401;0,131878
579,5043;0,131774
580,4686;0,131673
581,4328;0,1316
582,3970;0,131556
583,3613;0,131515
584,3255;0,131449
585,2897;0,131349
586,2540;0,131238
587,2182;0,13117
588,1824;0,131194
589,1467;0,131326
590,1109;0,131528
591,0751;0,131713
592,0394;0,131779
593,0036;0,131656
593,9678;0,131341
594,9321;0,130892
595,8963;0,130398
596,8605;0,12995
597,8248;0,129608
598,7890;0,129392
599,7532;0,129276
600,7175;0,129198
601,6817;0,129089
602,6459;0,128901
603,6102;0,128629
604,5744;0,128303
605,5386;0,127969
606,5029;0,127663
607,4671;0,127388
608,4313;0,127117
609,3956;0,126812
610,3598;0,126444
611,3240;0,126003
612,2883;0,125502
613,2525;0,12496
614,2167;0,1244
615,1810;0,123835
616,1452;0,12327
617,1094;0,122698
618,0737;0,122102
619,0379;0,121456
620,0021;0,120741
620,9664;0,119954
621,9306;0,119114
622,8948;0,118256
623,8591;0,117419
624,8233;0,116629
625,7875;0,115889
626,7518;0,115187
627,7160;0,11451
628,6802;0,113863
629,6445;0,113267
630,6087;0,112741
631,5729;0,112285
632,5372;0,111872
633,5014;0,111457
634,4656;0,111004
635,4299;0,110501
636,3941;0,109969
637,3583;0,109441
638,3226;0,108946
639,2868;0,108494
640,2510;0,108075
641,2153;0,107671
642,1795;0,107264
643,1437;0,10684
644,1080;0,106394
645,0722;0,105927
646,0364;0,105448
647,0007;0,104974
647,9649;0,10453
648,9291;0,104144
649,8934;0,10384
650,8576;0,103629
651,8218;0,103515
652,7861;0,103493
653,7503;0,103553
654,7145;0,103673
655,6788;0,103822
656,6430;0,103962
657,6072;0,104061
658,5715;0,104106
659,5357;0,104106
660,4999;0,104085
661,4642;0,104066
662,4284;0,104043
663,3926;0,103981
664,3569;0,103804
665,3211;0,103396
666,2853;0,102601
667,2496;0,101343
668,2138;0,0998832
669,1780;0,0987896
670,1423;0,0982883
671,1065;0,09808
672,0707;0,0978065
673,0350;0,0972752
673,9992;0,0964323
674,9634;0,0953277
675,9277;0,0940888
676,8919;0,0928615
677,8561;0,0917387
678,8204;0,0907405
679,7846;0,0898543
680,7488;0,0890769
681,7131;0,0884175
682,6773;0,0878771
683,6415;0,0874357
684,6058;0,0870627
685,5700;0,0867365
686,5342;0,0864506
687,4985;0,0862047
688,4627;0,0859917
689,4269;0,0857959
690,3912;0,0856015
691,3554;0,0854038
692,3196;0,085212
693,2839;0,0850422
694,2481;0,0849072
695,2123;0,0848084
696,1766;0,084734
697,1408;0,0846622
698,1050;0,0845688
699,0693;0,0844359
700,0335;0,0842581
700,9977;0,0840422
701,9620;0,0838005
702,9262;0,0835426
703,8904;0,0832707
704,8547;0,0829807
705,8189;0,0826695
706,7831;0,0823415
707,7474;0,0820089
708,7116;0,0816845
709,6758;0,0813739
710,6401;0,0810708
711,6043;0,0807591
712,5685;0,0804197
713,5328;0,0800382
714,4970;0,0796088
715,4612;0,0791622
716,4255;0,0786429
717,3897;0,0780945
718,3539;0,077535
719,3182;0,0769876
720,2824;0,0764749
721,2466;0,0760077
722,2109;0,0755771
723,1751;0,0751575
724,1393;0,0747183
725,1036;0,074238
726,0678;0,0737121
727,0320;0,0731538
727,9963;0,0725858
728,9605;0,0720289
729,9247;0,0714954
730,8890;0,0709879
731,8532;0,0705052
732,8174;0,0700463
733,7817;0,0696116
734,7459;0,0692007
735,7101;0,0688109
736,6744;0,068439
737,6386;0,0680837
738,6028;0,0677469
739,5671;0,0674309
740,5313;0,0671334
741,4955;0,0668446
742,4598;0,0665498
743,4240;0,0662352
744,3882;0,0658956
745,3525;0,0655368
746,3167;0,0651731
747,2809;0,0648212
748,2452;0,0644928
749,2094;0,0641908
750,1736;0,0639085
751,1379;0,0636323
752,1021;0,0633467
753,0663;0,0630399
754,0306;0,0627097
754,9948;0,0623655
755,9590;0,0620245
756,9233;0,0617041
757,8875;0,0614125
758,8517;0,0611448
759,8160;0,0608872
760,7802;0,0606272
761,7444;0,0603632
762,7087;0,0601056
763,6729;0,0598686
764,6371;0,0596585
765,6014;0,0594661
766,5656;0,0592709
767,5298;0,0590534
768,4941;0,0588077
769,4583;0,0585446
770,4225;0,0582851
771,3868;0,0580475
772,3510;0,0578383
773,3152;0,0576525
774,2795;0,057481
775,2437;0,0573193
776,2079;0,0571692
777,1722;0,0570345
778,1364;0,0569127
779,1006;0,0567911
780,0649;0,0566499
781,0291;0,0564709
781,9933;0,0562459
782,9576;0,0559804
783,9218;0,0556907
784,8860;0,0553973
785,8503;0,0551186
786,8145;0,0548664
787,7787;0,0546446
788,7430;0,0544502
789,7072;0,0542748
790,6714;0,0541097
791,6357;0,0539494
792,5999;0,0537954
793,5641;0,0536545
794,5284;0,0535343
795,4926;0,0534372
796,4568;0,0533577
797,4211;0,0532857
798,3853;0,0532117
799,3495;0,0531313
800,3138;0,0530446
801,2780;0,0529523
802,2422;0,0528534
803,2065;0,0527463
804,1707;0,0526318
805,1349;0,0525161
806,0992;0,0524075
807,0634;0,0523114
808,0276;0,0522262
808,9919;0,0521451
809,9561;0,0520619
810,9203;0,0519769
811,8846;0,0518972
812,8488;0,0518318
813,8130;0,0517838
814,7773;0,0517472
815,7415;0,0517089
816,7057;0,0516561
817,6700;0,0515828
818,6342;0,0514928
819,5984;0,0513972
820,5627;0,051309
821,5269;0,0512378
822,4911;0,0511863
823,4554;0,0511498
824,4196;0,0511198
825,3839;0,0510884
826,3481;0,051052
827,3123;0,0510117
828,2766;0,0509685
829,2408;0,050919
830,2050;0,0508528
831,1693;0,050758
832,1335;0,0506295
833,0977;0,0504757
834,0620;0,0503154
835,0262;0,0501659
835,9904;0,0500304
836,9547;0,0498944
837,9189;0,0497356
838,8831;0,0495415
839,8474;0,0493209
840,8116;0,0491018
841,7758;0,0489135
842,7401;0,048768
843,7043;0,0486533
844,6685;0,0485435
845,6328;0,0484189
846,5970;0,0482818
847,5612;0,0481558
848,5255;0,048071
849,4897;0,0480428
850,4539;0,0480608
851,4182;0,0480907
852,3824;0,0480911
853,3466;0,048032
854,3109;0,0479085
855,2751;0,0477415
856,2393;0,0475674
857,2036;0,0474221
858,1678;0,0473275
859,1320;0,0472859
860,0963;0,0472839
861,0605;0,0473032
862,0247;0,0473316
862,9890;0,0473665
863,9532;0,0474125
864,9174;0,0474742
865,8817;0,0475511
866,8459;0,0476392
867,8101;0,0477355
868,7744;0,0478415
869,7386;0,0479626
870,7028;0,0481015
871,6671;0,0482533
872,6313;0,0484055
873,5955;0,0485445
874,5598;0,0486621
875,5240;0,0487596
876,4882;0,0488438
877,4525;0,0489221
878,4167;0,0489985
879,3809;0,0490763
880,3452;0,0491635
881,3094;0,0492763
882,2736;0,0494361
883,2379;0,0496615
884,2021;0,0499603
885,1663;0,0503279
886,1306;0,0507518
887,0948;0,0512195
888,0590;0,0517236
889,0233;0,0522604
889,9875;0,0528246
890,9517;0,0534031
891,9160;0,0539725
892,8802;0,0545027
893,8444;0,0549628
894,8087;0,0553276
895,7729;0,0555817
896,7371;0,0557206
897,7014;0,0557487
898,6656;0,0556756
899,6298;0,055511
900,5941;0,0552619
901,5583;0,0549322
902,5225;0,0545268
903,4868;0,0540574
904,4510;0,0535484
905,4152;0,0530371
906,3795;0,0525674
907,3437;0,0521793
908,3079;0,0518968
909,2722;0,0517212
910,2364;0,0516327
911,2007;0,0515999
912,1649;0,051593
913,1292;0,0515944
914,0934;0,0516024
915,0576;0,0516253
916,0219;0,0516727
916,9861;0,0517488
917,9503;0,0518515
918,9146;0,0519781
919,8788;0,0521288
920,8430;0,0523066
921,8073;0,0525108
922,7715;0,0527308
923,7357;0,0529458
924,7000;0,0531323
925,6642;0,0532758
926,6284;0,0533766
927,5927;0,053449
928,5569;0,0535114
929,5211;0,0535782
930,4854;0,0536553
931,4496;0,0537444
932,4138;0,0538471
933,3781;0,0539682
934,3423;0,0541137
935,3065;0,0542875
936,2708;0,0544896
937,2350;0,0547179
938,1992;0,0549719
939,1635;0,0552546
940,1277;0,0555727
941,0919;0,0559348
942,0562;0,056349
943,0204;0,0568215
943,9846;0,0573541
944,9489;0,057943
945,9131;0,0585789
946,8773;0,0592491
947,8416;0,059943
948,8058;0,0606571
949,7700;0,061397
950,7343;0,0621747
951,6985;0,0630025
952,6627;0,0638882
953,6270;0,0648322
954,5912;0,0658298
955,5554;0,0668743
956,5197;0,0679594
957,4839;0,0690797
958,4481;0,0702299
959,4124;0,0714039
960,3766;0,0725953
961,3408;0,0737983
962,3051;0,0750097
963,2693;0,0762296
964,2335;0,0774611
965,1978;0,0787089
966,1620;0,0799777
967,1262;0,0812724
968,0905;0,0825988
969,0547;0,0839662
970,0189;0,0853898
970,9832;0,0868898
971,9474;0,0884895
972,9116;0,0902106
973,8759;0,0920707
974,8401;0,0940832
975,8043;0,096258
976,7686;0,0986025
977,7328;0,101117
978,6970;0,103785
979,6613;0,106568
980,6255;0,1094
981,5897;0,112195
982,5540;0,114858
983,5182;0,117311
984,4824;0,1195
985,4467;0,121406
986,4109;0,123041
987,3751;0,124432
988,3394;0,125618
989,3036;0,126633
990,2678;0,127504
991,2321;0,128257
992,1963;0,128912
993,1605;0,129494
994,1248;0,130028
995,0890;0,13054
996,0532;0,13105
997,0175;0,131571
997,9817;0,132107
998,9459;0,132654
999,9102;0,133214
1000,8744;0,133795
1001,8386;0,134418
1002,8029;0,135112
1003,7671;0,135904
1004,7313;0,136812
1005,6956;0,137844
1006,6598;0,139
1007,6240;0,140281
1008,5883;0,141686
1009,5525;0,143214
1010,5167;0,144852
1011,4810;0,146573
1012,4452;0,14834
1013,4094;0,150121
1014,3737;0,15189
1015,3379;0,153636
1016,3021;0,155349
1017,2664;0,157023
1018,2306;0,158642
1019,1948;0,160194
1020,1591;0,161677
1021,1233;0,163097
1022,0875;0,164469
1023,0518;0,165806
1024,0160;0,167112
1024,9802;0,16838
1025,9445;0,169595
1026,9087;0,170744
1027,8729;0,171803
1028,8372;0,172736
1029,8014;0,173487
1030,7656;0,173976
1031,7299;0,174116
1032,6941;0,173835
1033,6583;0,173098
1034,6226;0,171923
1035,5868;0,170389
1036,5510;0,168622
1037,5153;0,166776
1038,4795;0,165006
1039,4437;0,163442
1040,4080;0,162169
1041,3722;0,161222
1042,3364;0,160584
1043,3007;0,160204
1044,2649;0,160009
1045,2291;0,15992
1046,1934;0,159863
1047,1576;0,159776
1048,1218;0,159608
1049,0861;0,159318
1050,0503;0,158875
1051,0145;0,158254
1051,9788;0,157441
1052,9430;0,156429
1053,9072;0,155223
1054,8715;0,153833
1055,8357;0,152266
1056,7999;0,15052
1057,7642;0,148573
1058,7284;0,146396
1059,6926;0,143962
1060,6569;0,141275
1061,6211;0,138379
1062,5853;0,135365
1063,5496;0,132346
1064,5138;0,129438
1065,4780;0,126726
1066,4423;0,124257
1067,4065;0,122038
1068,3707;0,120042
1069,3350;0,118229
1070,2992;0,116552
1071,2634;0,11497
1072,2277;0,113446
1073,1919;0,111951
1074,1561;0,110466
1075,1204;0,108977
1076,0846;0,107482
1077,0488;0,105987
1078,0131;0,10451
1078,9773;0,103078
1079,9415;0,101722
1080,9058;0,100471
1081,8700;0,0993513
1082,8342;0,0983748
1083,7985;0,0975427
1084,7627;0,0968452
1085,7269;0,0962648
1086,6912;0,0957817
1087,6554;0,0953787
1088,6196;0,0950456
1089,5839;0,0947807
1090,5481;0,0945898
1091,5123;0,0944809
1092,4766;0,0944582
1093,4408;0,0945185
1094,4050;0,0946511
1095,3693;0,0948423
1096,3335;0,095082
1097,2977;0,0953676
1098,2620;0,0957029
1099,2262;0,0960915
1100,1904;0,0965272
1101,1547;0,0969879
1102,1189;0,0974364
1103,0831;0,0978297
1104,0474;0,098131
1105,0116;0,0983205
1105,9758;0,0983972
1106,9401;0,0983712
1107,9043;0,0982503
1108,8685;0,0980274
1109,8328;0,0976766
1110,7970;0,0971621
1111,7612;0,0964552
1112,7255;0,0955536
1113,6897;0,0944917
1114,6539;0,0933375
1115,6182;0,0921747
1116,5824;0,0910785
1117,5466;0,0900946
1118,5109;0,0892279
1119,4751;0,0884444
1120,4393;0,0876828
1121,4036;0,0868715
1122,3678;0,0859462
1123,3320;0,084862
1124,2963;0,0836014
1125,2605;0,0821737
1126,2247;0,0806089
1127,1890;0,0789473
1128,1532;0,0772292
1129,1174;0,0754873
1130,0817;0,073745
1131,0459;0,072019
1132,0101;0,070325
1132,9744;0,0686831
1133,9386;0,0671203
1134,9028;0,0656708
1135,8671;0,0643712
1136,8313;0,0632551
1137,7955;0,0623458
1138,7598;0,0616515
1139,7240;0,0611638
1140,6882;0,0608611
1141,6525;0,0607146
1142,6167;0,0606947
1143,5809;0,0607762
1144,5452;0,0609395
1145,5094;0,0611708
1146,4736;0,0614603
1147,4379;0,0618015
1148,4021;0,0621897
1149,3663;0,0626211
1150,3306;0,0630896
1151,2948;0,0635847
1152,2590;0,0640905
1153,2233;0,0645859
1154,1875;0,0650466
1155,1517;0,0654456
1156,1160;0,0657525
1157,0802;0,0659313
1158,0444;0,0659388
1159,0087;0,0657253
1159,9729;0,0652397
1160,9371;0,0644385
1161,9014;0,0632963
1162,8656;0,0618151
1163,8298;0,0600292
1164,7941;0,0580028
1165,7583;0,0558215
1166,7225;0,0535793
1167,6868;0,0513653
1168,6510;0,0492525
1169,6152;0,0472926
1170,5795;0,0455157
1171,5437;0,0439344
1172,5079;0,0425491
1173,4722;0,0413528
1174,4364;0,0403331
1175,4006;0,0394734
1176,3649;0,0387539
1177,3291;0,0381528
1178,2933;0,0376487
1179,2576;0,0372229
1180,2218;0,0368608
1181,1860;0,0365536
1182,1503;0,0362975
1183,1145;0,0360932
1184,0787;0,0359435
1185,0430;0,0358503
1186,0072;0,0358131
1186,9714;0,0358281
1187,9357;0,0358899
1188,8999;0,0359949
1189,8641;0,0361427
1190,8284;0,036337
1191,7926;0,0365824
1192,7568;0,0368818
1193,7211;0,0372345
1194,6853;0,0376359
1195,6495;0,0380789
1196,6138;0,0385551
1197,5780;0,0390542
1198,5422;0,0395645
1199,5065;0,0398273
1200,4707;0,0403519
1201,4349;0,0408582
1202,3992;0,0413442
1203,3634;0,0418139
1204,3276;0,0422736
1205,2919;0,0427282
1206,2561;0,0431799
1207,2203;0,0436293
1208,1846;0,0440785
1209,1488;0,0445334
1210,1130;0,0450039
1211,0773;0,0455016
1212,0415;0,0460359
1213,0057;0,0466114
1213,9700;0,0472264
1214,9342;0,0478735
1215,8984;0,0485425
1216,8627;0,0492201
1217,8269;0,0498916
1218,7911;0,0505452
1219,7554;0,0511715
1220,7196;0,0517625
1221,6838;0,0523122
1222,6481;0,0528156
1223,6123;0,0532703
1224,5765;0,0536776
1225,5408;0,0540433
1226,5050;0,0543759
1227,4692;0,0546838
1228,4335;0,0549722
1229,3977;0,0552408
1230,3619;0,0554845
1231,3262;0,0556966
1232,2904;0,0558715
1233,2546;0,0560077
1234,2189;0,0561087
1235,1831;0,0561819
1236,1473;0,0562362
1237,1116;0,0562794
1238,0758;0,0563159
1239,0400;0,0563453
1240,0043;0,0563637
1240,9685;0,0563641
1241,9327;0,0563396
1242,8970;0,0562841
1243,8612;0,056193
1244,8254;0,0560634
1245,7897;0,0558948
1246,7539;0,0556902
1247,7181;0,0554569
1248,6824;0,0552056
1249,6466;0,0549472
1250,6108;0,0546898
1251,5751;0,0544366
1252,5393;0,0541878
1253,5035;0,0539434
1254,4678;0,0537055
1255,4320;0,0534763
1256,3962;0,0532546
1257,3605;0,0530328
1258,3247;0,0527969
1259,2889;0,0525324
1260,2532;0,0522311
1261,2174;0,0518945
1262,1816;0,0515323
1263,1459;0,0511557
1264,1101;0,0507708
1265,0743;0,0503774
1266,0386;0,0499699
1267,0028;0,049542
1267,9670;0,0490895
1268,9313;0,0486112
1269,8955;0,0481096
1270,8597;0,0475894
1271,8240;0,0470571
1272,7882;0,0465199
1273,7524;0,045985
1274,7167;0,0454598
1275,6809;0,0449515
1276,6451;0,0444669
1277,6094;0,0440099
1278,5736;0,0435797
1279,5378;0,0431699
1280,5021;0,0427711
1281,4663;0,0423763
1282,4305;0,0419846
1283,3948;0,0416022
1284,3590;0,041239
1285,3232;0,0409045
1286,2875;0,0406044
1287,2517;0,0403411
1288,2159;0,040116
1289,1802;0,0399314
1290,1444;0,0397917
1291,1086;0,0397012
1292,0729;0,0396625
1293,0371;0,0396763
1294,0013;0,0397418
1294,9656;0,0398576
1295,9298;0,040022
1296,8940;0,0402333
1297,8583;0,0404899
1298,8225;0,0407908
1299,7867;0,0411355
1300,7510;0,0415224
1301,7152;0,0419516
1302,6794;0,0424192
1303,6437;0,0429191
1304,6079;0,0434464
1305,5721;0,0439971
1306,5364;0,0445694
1307,5006;0,0451631
1308,4648;0,0457781
1309,4291;0,0464113
1310,3933;0,0470547
1311,3575;0,0476933
1312,3218;0,0483064
1313,2860;0,0488713
1314,2502;0,0493677
1315,2145;0,0497777
1316,1787;0,0500831
1317,1429;0,0502648
1318,1072;0,0503087
1319,0714;0,0502178
1320,0356;0,0500196
1320,9999;0,0497603
1321,9641;0,0494869
1322,9283;0,0492322
1323,8926;0,0490104
1324,8568;0,0488223
1325,8210;0,0486637
1326,7853;0,0485295
1327,7495;0,0484141
1328,7137;0,0483089
1329,6780;0,0482005
1330,6422;0,0480746
1331,6064;0,047923
1332,5707;0,047748
1333,5349;0,0475639
1334,4991;0,0473866
1335,4634;0,04722
1336,4276;0,0470427
1337,3918;0,0468016
1338,3561;0,0464298
1339,3203;0,0458988
1340,2845;0,0452627
1341,2488;0,0446332
1342,2130;0,0441045
1343,1772;0,0437103
1344,1415;0,043438
1345,1057;0,0432591
1346,0699;0,0431484
1347,0342;0,0430893
1347,9984;0,0430752
1348,9626;0,0431089
1349,9269;0,0431978
1350,8911;0,0433465
1351,8553;0,04355
1352,8196;0,0437939
