TITLE;
DATA TYPE;INFRARED SPECTRUM
ORIGIN;JASCO
OWNER;
DATE;25/03/18
TIME;12:32:05
SPECTROMETER/DATA SYSTEM;
LOCALE;9226
RESOLUTION;
DELTAX;0,964233
XUNITS;1/CM
YUNITS;ABSORBANCE
FIRSTX;  399,1927
LASTX; 4000,6047
NPOINTS;    3736
FIRSTY;     0,19798
MAXY;     0,23954
MINY;     0,00970
XYDATA
399,1927;0,197982
400,1569;0,195069
401,1211;0,193993
402,0854;0,194409
403,0496;0,195586
404,0138;0,196797
404,9781;0,197506
405,9423;0,1975
406,9065;0,196914
407,8708;0,19609
408,8350;0,195351
409,7992;0,194885
410,7635;0,19477
411,7277;0,195063
412,6919;0,195836
413,6562;0,19712
414,6204;0,198845
415,5846;0,200796
416,5489;0,20259
417,5131;0,203707
418,4773;0,203771
419,4416;0,203026
420,4058;0,202266
421,3700;0,202071
422,3343;0,202478
423,2985;0,203254
424,2627;0,204172
425,2270;0,205107
426,1912;0,206016
427,1554;0,206865
428,1197;0,207585
429,0839;0,208092
430,0481;0,208345
431,0124;0,208403
431,9766;0,208412
432,9408;0,208511
433,9051;0,208729
434,8693;0,208945
435,8335;0,208957
436,7978;0,208608
437,7620;0,207875
438,7262;0,206862
439,6905;0,20573
440,6547;0,204638
441,6189;0,203728
442,5832;0,203113
443,5474;0,20284
444,5116;0,202857
445,4759;0,203022
446,4401;0,203176
447,4043;0,203216
448,3686;0,20312
449,3328;0,202935
450,2970;0,202735
451,2613;0,20257
452,2255;0,202446
453,1897;0,202321
454,1540;0,202127
455,1182;0,201798
456,0824;0,201303
457,0467;0,200685
458,0109;0,200078
458,9751;0,199653
459,9394;0,199517
460,9036;0,199648
461,8678;0,199926
462,8321;0,200184
463,7963;0,200266
464,7605;0,200063
465,7248;0,199551
466,6890;0,198795
467,6532;0,197906
468,6175;0,197001
469,5817;0,196182
470,5459;0,195557
471,5102;0,195261
472,4744;0,195402
473,4386;0,195979
474,4029;0,196827
475,3671;0,197686
476,3313;0,198317
477,2956;0,198602
478,2598;0,198573
479,2240;0,198386
480,1883;0,198238
481,1525;0,198273
482,1167;0,198527
483,0810;0,198939
484,0452;0,199412
485,0094;0,199879
485,9737;0,200321
486,9379;0,200745
487,9021;0,201141
488,8664;0,201482
489,8306;0,201739
490,7948;0,201903
491,7591;0,20199
492,7233;0,202027
493,6875;0,202036
494,6518;0,202037
495,6160;0,202061
496,5802;0,202159
497,5445;0,202382
498,5087;0,20275
499,4729;0,20323
500,4372;0,203741
501,4014;0,204191
502,3656;0,204527
503,3299;0,204763
504,2941;0,204961
505,2583;0,205187
506,2226;0,20548
507,1868;0,205853
508,1510;0,206297
509,1153;0,206798
510,0795;0,207341
511,0437;0,207911
512,0080;0,208504
512,9722;0,209134
513,9365;0,209822
514,9007;0,210571
515,8649;0,211327
516,8292;0,211955
517,7934;0,212277
518,7576;0,212175
519,7219;0,211688
520,6861;0,211013
521,6503;0,210399
522,6146;0,210045
523,5788;0,21003
524,5430;0,210294
525,5073;0,210661
526,4715;0,210919
527,4357;0,210929
528,4000;0,210677
529,3642;0,210244
530,3284;0,209728
531,2927;0,209199
532,2569;0,208687
533,2211;0,208204
534,1854;0,207774
535,1496;0,20744
536,1138;0,207257
537,0781;0,207258
538,0423;0,207427
539,0065;0,207693
539,9708;0,207954
540,9350;0,208122
541,8992;0,208161
542,8635;0,208108
543,8277;0,208052
544,7919;0,20809
545,7562;0,208279
546,7204;0,208611
547,6846;0,209025
548,6489;0,209448
549,6131;0,20984
550,5773;0,210206
551,5416;0,210591
552,5058;0,211049
553,4700;0,211617
554,4343;0,212283
555,3985;0,212977
556,3627;0,213556
557,3270;0,213836
558,2912;0,213643
559,2554;0,212884
560,2197;0,211598
561,1839;0,209959
562,1481;0,208218
563,1124;0,206609
564,0766;0,205266
565,0408;0,2042
566,0051;0,20333
566,9693;0,202549
567,9335;0,201789
568,8978;0,201047
569,8620;0,200369
570,8262;0,199806
571,7905;0,199384
572,7547;0,199088
573,7189;0,198874
574,6832;0,198691
575,6474;0,198496
576,6116;0,198264
577,5759;0,197991
578,5401;0,197688
579,5043;0,197374
580,4686;0,197071
581,4328;0,196804
582,3970;0,196589
583,3613;0,19643
584,3255;0,196314
585,2897;0,196214
586,2540;0,196107
587,2182;0,19598
588,1824;0,19584
589,1467;0,195698
590,1109;0,195566
591,0751;0,195441
592,0394;0,195306
593,0036;0,195143
593,9678;0,194935
594,9321;0,194673
595,8963;0,194352
596,8605;0,193979
597,8248;0,19357
598,7890;0,193162
599,7532;0,192787
600,7175;0,192458
601,6817;0,192144
602,6459;0,191785
603,6102;0,191323
604,5744;0,190743
605,5386;0,190084
606,5029;0,189412
607,4671;0,188781
608,4313;0,188193
609,3956;0,187607
610,3598;0,186982
611,3240;0,186323
612,2883;0,185685
613,2525;0,185138
614,2167;0,184699
615,1810;0,184287
616,1452;0,18374
617,1094;0,182881
618,0737;0,181626
619,0379;0,180034
620,0021;0,178274
620,9664;0,176535
621,9306;0,174953
622,8948;0,173593
623,8591;0,172464
624,8233;0,171513
625,7875;0,170759
626,7518;0,170158
627,7160;0,16965
628,6802;0,169163
629,6445;0,168626
630,6087;0,167984
631,5729;0,167225
632,5372;0,16638
633,5014;0,165524
634,4656;0,164747
635,4299;0,164125
636,3941;0,163684
637,3583;0,163394
638,3226;0,163183
639,2868;0,162965
640,2510;0,162678
641,2153;0,1623
642,1795;0,161854
643,1437;0,161389
644,1080;0,160953
645,0722;0,160578
646,0364;0,160269
647,0007;0,160018
647,9649;0,159814
648,9291;0,159661
649,8934;0,159573
650,8576;0,159564
651,8218;0,159636
652,7861;0,159769
653,7503;0,159935
654,7145;0,160111
655,6788;0,160284
656,6430;0,160463
657,6072;0,160664
658,5715;0,160885
659,5357;0,161085
660,4999;0,161173
661,4642;0,161038
662,4284;0,160592
663,3926;0,159798
664,3569;0,158697
665,3211;0,157482
666,2853;0,156527
667,2496;0,156166
668,2138;0,156166
669,1780;0,155837
670,1423;0,15502
671,1065;0,153967
672,0707;0,152714
673,0350;0,151166
673,9992;0,149323
674,9634;0,147313
675,9277;0,14531
676,8919;0,143439
677,8561;0,141739
678,8204;0,140197
679,7846;0,138815
680,7488;0,137615
681,7131;0,136613
682,6773;0,135777
683,6415;0,135041
684,6058;0,134338
685,5700;0,133641
686,5342;0,13296
687,4985;0,132319
688,4627;0,131736
689,4269;0,1312
690,3912;0,130697
691,3554;0,130214
692,3196;0,129747
693,2839;0,129288
694,2481;0,128831
695,2123;0,12837
696,1766;0,127902
697,1408;0,127433
698,1050;0,126966
699,0693;0,126498
700,0335;0,126018
700,9977;0,125509
701,9620;0,124957
702,9262;0,124353
703,8904;0,123689
704,8547;0,122977
705,8189;0,12224
706,7831;0,121507
707,7474;0,1208
708,7116;0,120124
709,6758;0,119458
710,6401;0,118759
711,6043;0,117979
712,5685;0,117098
713,5328;0,116151
714,4970;0,115222
715,4612;0,113803
716,4255;0,113298
717,3897;0,112999
718,3539;0,112751
719,3182;0,112329
720,2824;0,111545
721,2466;0,110356
722,2109;0,108885
723,1751;0,107347
724,1393;0,105932
725,1036;0,104736
726,0678;0,103754
727,0320;0,102919
727,9963;0,102151
728,9605;0,101394
729,9247;0,100631
730,8890;0,0998645
731,8532;0,0991098
732,8174;0,0983799
733,7817;0,0976838
734,7459;0,0970262
735,7101;0,0964079
736,6744;0,0958269
737,6386;0,0952806
738,6028;0,094767
739,5671;0,0942848
740,5313;0,0938301
741,4955;0,0933939
742,4598;0,0929616
743,4240;0,0925174
744,3882;0,09205
745,3525;0,0915561
746,3167;0,0910409
747,2809;0,0905154
748,2452;0,0899931
749,2094;0,0894868
750,1736;0,0890059
751,1379;0,0885533
752,1021;0,088123
753,0663;0,0877004
754,0306;0,0872671
754,9948;0,0868086
755,9590;0,0863215
756,9233;0,0858154
757,8875;0,0853099
758,8517;0,0848269
759,8160;0,0843838
760,7802;0,08399
761,7444;0,0836468
762,7087;0,0833476
763,6729;0,0830788
764,6371;0,082821
765,6014;0,082553
766,5656;0,082258
767,5298;0,0819307
768,4941;0,0815782
769,4583;0,0812157
770,4225;0,0808577
771,3868;0,0805125
772,3510;0,0801825
773,3152;0,0798706
774,2795;0,0795861
775,2437;0,0793421
776,2079;0,0791464
777,1722;0,0789898
778,1364;0,0788425
779,1006;0,0786636
780,0649;0,0784171
781,0291;0,0780876
781,9933;0,0776837
782,9576;0,0772306
783,9218;0,0767563
784,8860;0,0762836
785,8503;0,0758284
786,8145;0,0754051
787,7787;0,0750285
788,7430;0,0747112
789,7072;0,0744553
790,6714;0,0742478
791,6357;0,0740634
792,5999;0,0738746
793,5641;0,0736633
794,5284;0,0734267
795,4926;0,0731741
796,4568;0,0729195
797,4211;0,0726742
798,3853;0,072444
799,3495;0,0722304
800,3138;0,0720326
801,2780;0,0718476
802,2422;0,07167
803,2065;0,0714931
804,1707;0,0713123
805,1349;0,0711286
806,0992;0,0709509
807,0634;0,0707923
808,0276;0,0706632
808,9919;0,0705645
809,9561;0,0704849
810,9203;0,0704048
811,8846;0,0703044
812,8488;0,0701727
813,8130;0,070012
814,7773;0,0698382
815,7415;0,069675
816,7057;0,0695477
817,6700;0,0694749
818,6342;0,0694636
819,5984;0,0695049
820,5627;0,0695744
821,5269;0,0696372
822,4911;0,0696578
823,4554;0,0696119
824,4196;0,0694948
825,3839;0,0693213
826,3481;0,0691179
827,3123;0,0689114
828,2766;0,06872
829,2408;0,0685511
830,2050;0,0684043
831,1693;0,0682737
832,1335;0,0681489
833,0977;0,0680133
834,0620;0,0678452
835,0262;0,0676245
835,9904;0,0673429
836,9547;0,0670101
837,9189;0,0666515
838,8831;0,0662987
839,8474;0,0659768
840,8116;0,0656993
841,7758;0,0654701
842,7401;0,0652888
843,7043;0,0651537
844,6685;0,0650575
845,6328;0,0649831
846,5970;0,0649045
847,5612;0,064797
848,5255;0,0646505
849,4897;0,0644771
850,4539;0,0643048
851,4182;0,0641614
852,3824;0,0640583
853,3466;0,0639864
854,3109;0,0639248
855,2751;0,0638555
856,2393;0,0637731
857,2036;0,063684
858,1678;0,063599
859,1320;0,0635264
860,0963;0,0634715
861,0605;0,0634407
862,0247;0,0634433
862,9890;0,0634878
863,9532;0,0635765
864,9174;0,0637024
865,8817;0,0638544
866,8459;0,0640262
867,8101;0,0642216
868,7744;0,0644505
869,7386;0,0647168
870,7028;0,0650089
871,6671;0,0653015
872,6313;0,0655677
873,5955;0,0657956
874,5598;0,0659949
875,5240;0,0661905
876,4882;0,0664069
877,4525;0,066656
878,4167;0,0669352
879,3809;0,0672382
880,3452;0,0675674
881,3094;0,0679389
882,2736;0,0683777
883,2379;0,0689057
884,2021;0,069533
885,1663;0,0702555
886,1306;0,0710601
887,0948;0,0719308
888,0590;0,0728512
889,0233;0,0738028
889,9875;0,0747618
890,9517;0,0756989
891,9160;0,0765806
892,8802;0,0773735
893,8444;0,0780466
894,8087;0,078574
895,7729;0,0789367
896,7371;0,0791247
897,7014;0,0791392
898,6656;0,0789917
899,6298;0,0787011
900,5941;0,0782889
901,5583;0,0777772
902,5225;0,0771896
903,4868;0,0765543
904,4510;0,0759057
905,4152;0,0752831
906,3795;0,0747236
907,3437;0,0742543
908,3079;0,0738855
909,2722;0,0736101
910,2364;0,0734084
911,2007;0,0732589
912,1649;0,0731481
913,1292;0,073077
914,0934;0,0730598
915,0576;0,0731155
916,0219;0,0732561
916,9861;0,0734794
917,9503;0,073769
918,9146;0,0741008
919,8788;0,0744528
920,8430;0,0748107
921,8073;0,0751674
922,7715;0,0755193
923,7357;0,0758614
924,7000;0,0761868
925,6642;0,076489
926,6284;0,0767646
927,5927;0,077016
928,5569;0,0772517
929,5211;0,0774857
930,4854;0,0777348
931,4496;0,0780144
932,4138;0,0783333
933,3781;0,0786904
934,3423;0,0790774
935,3065;0,079487
936,2708;0,0799214
937,2350;0,0803966
938,1992;0,0809366
939,1635;0,0815624
940,1277;0,0822822
941,0919;0,0830889
942,0562;0,0839671
943,0204;0,0849041
943,9846;0,0858972
944,9489;0,0869546
945,9131;0,0880891
946,8773;0,0893114
947,8416;0,0906231
948,8058;0,092015
949,7700;0,0934674
950,7343;0,0949554
951,6985;0,096457
952,6627;0,0979614
953,6270;0,0994738
954,5912;0,101014
955,5554;0,102605
956,5197;0,104266
957,4839;0,106
958,4481;0,107797
959,4124;0,109642
960,3766;0,111518
961,3408;0,113415
962,3051;0,115323
963,2693;0,117235
964,2335;0,119145
965,1978;0,121053
966,1620;0,122968
967,1262;0,124911
968,0905;0,126911
969,0547;0,128996
970,0189;0,131189
970,9832;0,13351
971,9474;0,135979
972,9116;0,13862
973,8759;0,14146
974,8401;0,14452
975,8043;0,147808
976,7686;0,151305
977,7328;0,154966
978,6970;0,15872
979,6613;0,162476
980,6255;0,166134
981,5897;0,169593
982,5540;0,172767
983,5182;0,175591
984,4824;0,178042
985,4467;0,180139
986,4109;0,181937
987,3751;0,183515
988,3394;0,18495
989,3036;0,186298
990,2678;0,18758
991,2321;0,188791
992,1963;0,189906
993,1605;0,190904
994,1248;0,191778
995,0890;0,192543
996,0532;0,193227
997,0175;0,193864
997,9817;0,194476
998,9459;0,19508
999,9102;0,19569
1000,8744;0,196326
1001,8386;0,197026
1002,8029;0,197837
1003,7671;0,198808
1004,7313;0,199975
1005,6956;0,201355
1006,6598;0,202943
1007,6240;0,204724
1008,5883;0,206674
1009,5525;0,208764
1010,5167;0,210959
1011,4810;0,213218
1012,4452;0,21549
1013,4094;0,217728
1014,3737;0,219885
1015,3379;0,221929
1016,3021;0,223836
1017,2664;0,225597
1018,2306;0,227214
1019,1948;0,228697
1020,1591;0,23006
1021,1233;0,231322
1022,0875;0,232503
1023,0518;0,23362
1024,0160;0,234687
1024,9802;0,235714
1025,9445;0,236697
1026,9087;0,23762
1027,8729;0,238442
1028,8372;0,239097
1029,8014;0,239496
1030,7656;0,239535
1031,7299;0,239115
1032,6941;0,238162
1033,6583;0,236653
1034,6226;0,234632
1035,5868;0,232216
1036,5510;0,229577
1037,5153;0,226923
1038,4795;0,224453
1039,4437;0,222329
1040,4080;0,220645
1041,3722;0,219427
1042,3364;0,218633
1043,3007;0,21818
1044,2649;0,217966
1045,2291;0,21789
1046,1934;0,217865
1047,1576;0,217817
1048,1218;0,217682
1049,0861;0,217399
1050,0503;0,216914
1051,0145;0,216185
1051,9788;0,215188
1052,9430;0,213923
1053,9072;0,212409
1054,8715;0,210665
1055,8357;0,208694
1056,7999;0,206464
1057,7642;0,203917
1058,7284;0,200994
1059,6926;0,197672
1060,6569;0,193989
1061,6211;0,190059
1062,5853;0,186042
1063,5496;0,182107
1064,5138;0,178391
1065,4780;0,174969
1066,4423;0,171861
1067,4065;0,169042
1068,3707;0,166467
1069,3350;0,164087
1070,2992;0,161856
1071,2634;0,159725
1072,2277;0,157642
1073,1919;0,155554
1074,1561;0,153419
1075,1204;0,151213
1076,0846;0,14894
1077,0488;0,146633
1078,0131;0,144348
1078,9773;0,142147
1079,9415;0,140092
1080,9058;0,138232
1081,8700;0,136598
1082,8342;0,1352
1083,7985;0,134028
1084,7627;0,133062
1085,7269;0,132274
1086,6912;0,131641
1087,6554;0,131146
1088,6196;0,13078
1089,5839;0,130541
1090,5481;0,130422
1091,5123;0,130409
1092,4766;0,13048
1093,4408;0,130611
1094,4050;0,130784
1095,3693;0,130993
1096,3335;0,131243
1097,2977;0,131542
1098,2620;0,131886
1099,2262;0,132259
1100,1904;0,132626
1101,1547;0,132946
1102,1189;0,13318
1103,0831;0,1333
1104,0474;0,133295
1105,0116;0,133171
1105,9758;0,132949
1106,9401;0,132652
1107,9043;0,13229
1108,8685;0,131841
1109,8328;0,13125
1110,7970;0,130439
1111,7612;0,129343
1112,7255;0,127941
1113,6897;0,126277
1114,6539;0,124455
1115,6182;0,122605
1116,5824;0,12084
1117,5466;0,119227
1118,5109;0,117777
1119,4751;0,116453
1120,4393;0,115185
1121,4036;0,113893
1122,3678;0,112497
1123,3320;0,110931
1124,2963;0,109153
1125,2605;0,107159
1126,2247;0,104976
1127,1890;0,102659
1128,1532;0,100274
1129,1174;0,0978744
1130,0817;0,0955023
1131,0459;0,093184
1132,0101;0,0909414
1132,9744;0,0887996
1133,9386;0,0867921
1134,9028;0,0849584
1135,8671;0,0833393
1136,8313;0,0819715
1137,7955;0,0808827
1138,7598;0,080088
1139,7240;0,0795866
1140,6882;0,0793605
1141,6525;0,0793762
1142,6167;0,07959
1143,5809;0,0799562
1144,5452;0,0804353
1145,5094;0,0809977
1146,4736;0,0816249
1147,4379;0,0823056
1148,4021;0,0830322
1149,3663;0,0837977
1150,3306;0,0845928
1151,2948;0,0854042
1152,2590;0,0862125
1153,2233;0,0869905
1154,1875;0,0877029
1155,1517;0,0883077
1156,1160;0,0887583
1157,0802;0,0890037
1158,0444;0,0889881
1159,0087;0,0886507
1159,9729;0,0879281
1160,9371;0,086764
1161,9014;0,0851226
1162,8656;0,0830039
1163,8298;0,0804533
1164,7941;0,0775613
1165,7583;0,0744528
1166,7225;0,0712688
1167,6868;0,0681445
1168,6510;0,0651905
1169,6152;0,0624795
1170,5795;0,0600436
1171,5437;0,0578809
1172,5079;0,05597
1173,4722;0,0542849
1174,4364;0,0528053
1175,4006;0,051519
1176,3649;0,0504166
1177,3291;0,0494842
1178,2933;0,0487009
1179,2576;0,0480405
1180,2218;0,0474782
1181,1860;0,0469964
1182,1503;0,0465877
1183,1145;0,0462525
1184,0787;0,0459953
1185,0430;0,0458215
1186,0072;0,0457357
1186,9714;0,0457416
1187,9357;0,0458415
1188,8999;0,046036
1189,8641;0,0463226
1190,8284;0,0466957
1191,7926;0,0471465
1192,7568;0,0476654
1193,7211;0,0482429
1194,6853;0,0488703
1195,6495;0,0495391
1196,6138;0,0502391
1197,5780;0,0509578
1198,5422;0,051681
1199,5065;0,052339
1200,4707;0,0530403
1201,4349;0,0537157
1202,3992;0,05436
1203,3634;0,0549663
1204,3276;0,0555249
1205,2919;0,0560249
1206,2561;0,0564613
1207,2203;0,0568417
1208,1846;0,0571893
1209,1488;0,0575402
1210,1130;0,0579349
1211,0773;0,0584074
1212,0415;0,0589781
1213,0057;0,0596501
1213,9700;0,0604119
1214,9342;0,0612424
1215,8984;0,0621179
1216,8627;0,0630158
1217,8269;0,0639179
1218,7911;0,0648129
1219,7554;0,0656947
1220,7196;0,0665599
1221,6838;0,0674044
1222,6481;0,0682206
1223,6123;0,0689991
1224,5765;0,0697312
1225,5408;0,0704131
1226,5050;0,071047
1227,4692;0,0716384
1228,4335;0,0721926
1229,3977;0,0727115
1230,3619;0,0731923
1231,3262;0,0736293
1232,2904;0,0740159
1233,2546;0,0743456
1234,2189;0,0746133
1235,1831;0,0748159
1236,1473;0,0749541
1237,1116;0,0750341
1238,0758;0,0750667
1239,0400;0,0750651
1240,0043;0,0750394
1240,9685;0,0749939
1241,9327;0,0749252
1242,8970;0,0748247
1243,8612;0,0746821
1244,8254;0,0744892
1245,7897;0,0742426
1246,7539;0,0739447
1247,7181;0,073603
1248,6824;0,073229
1249,6466;0,0728351
1250,6108;0,072433
1251,5751;0,0720323
1252,5393;0,0716409
1253,5035;0,0712652
1254,4678;0,0709098
1255,4320;0,0705753
1256,3962;0,0702571
1257,3605;0,0699439
1258,3247;0,0696213
1259,2889;0,0692752
1260,2532;0,0688968
1261,2174;0,0684836
1262,1816;0,0680383
1263,1459;0,067565
1264,1101;0,0670664
1265,0743;0,0665434
1266,0386;0,0659968
1267,0028;0,0654284
1267,9670;0,0648428
1268,9313;0,0642455
1269,8955;0,063641
1270,8597;0,0630307
1271,8240;0,0624118
1272,7882;0,0617805
1273,7524;0,0611364
1274,7167;0,0604864
1275,6809;0,0598443
1276,6451;0,0592258
1277,6094;0,0586399
1278,5736;0,0580841
1279,5378;0,0575452
1280,5021;0,0570077
1281,4663;0,0564634
1282,4305;0,0559173
1283,3948;0,0553854
1284,3590;0,0548868
1285,3232;0,0544369
1286,2875;0,0540444
1287,2517;0,0537122
1288,2159;0,0534407
1289,1802;0,0532296
1290,1444;0,0530789
1291,1086;0,0529896
1292,0729;0,0529644
1293,0371;0,053009
1294,0013;0,0531304
1294,9656;0,0533335
1295,9298;0,0536177
1296,8940;0,0539762
1297,8583;0,0543995
1298,8225;0,0548791
1299,7867;0,0554111
1300,7510;0,0559947
1301,7152;0,0566293
1302,6794;0,0573119
1303,6437;0,0580367
1304,6079;0,0587985
1305,5721;0,0595945
1306,5364;0,0604239
1307,5006;0,0612856
1308,4648;0,0621744
1309,4291;0,0630774
1310,3933;0,0639729
1311,3575;0,0648311
1312,3218;0,0656183
1313,2860;0,0663017
1314,2502;0,0668538
1315,2145;0,0672517
1316,1787;0,067475
1317,1429;0,0675085
1318,1072;0,0673517
1319,0714;0,06703
1320,0356;0,0665963
1320,9999;0,0661159
1321,9641;0,0656451
1322,9283;0,065218
1323,8926;0,0648476
1324,8568;0,0645355
1325,8210;0,0642818
1326,7853;0,0640876
1327,7495;0,0639527
1328,7137;0,0638692
1329,6780;0,0638185
1330,6422;0,0637742
1331,6064;0,0637097
1332,5707;0,0636066
1333,5349;0,063458
1334,4991;0,0632617
1335,4634;0,0630087
1336,4276;0,0626751
1337,3918;0,0622252
1338,3561;0,0616354
1339,3203;0,0609261
1340,2845;0,0601702
1341,2488;0,0594573
1342,2130;0,0588467
1343,1772;0,0583524
1344,1415;0,0579606
1345,1057;0,057653
1346,0699;0,0574206
1347,0342;0,0572657
1347,9984;0,0571977
1348,9626;0,0572255
1349,9269;0,0573503
1350,8911;0,0575618
1351,8553;0,0578404
1352,8196;0,0581641
1353,7838;0,0585181
1354,7480;0,0589012
1355,7123;0,0593233
1356,6765;0,0597955
1357,6407;0,0603186
1358,6050;0,0608789
1359,5692;0,0614493
1360,5334;0,0619932
