TITLE;
DATA TYPE;INFRARED SPECTRUM
ORIGIN;JASCO
OWNER;
DATE;25/03/18
TIME;13:48:06
SPECTROMETER/DATA SYSTEM;
LOCALE;9226
RESOLUTION;
DELTAX;0,964233
XUNITS;1/CM
YUNITS;ABSORBANCE
FIRSTX;  399,1927
LASTX; 4000,6047
NPOINTS;    3736
FIRSTY;     0,20088
MAXY;     0,26466
MINY;     0,01366
XYDATA
399,1927;0,200884
400,1569;0,198997
401,1211;0,196901
402,0854;0,195025
403,0496;0,193418
404,0138;0,192015
404,9781;0,190836
405,9423;0,190054
406,9065;0,189922
407,8708;0,190599
408,8350;0,191987
409,7992;0,193711
410,7635;0,195258
411,7277;0,19622
412,6919;0,196531
413,6562;0,196487
414,6204;0,196582
415,5846;0,197315
416,5489;0,199041
417,5131;0,201722
418,4773;0,204604
419,4416;0,206465
420,4058;0,206723
421,3700;0,205898
422,3343;0,204878
423,2985;0,204287
424,2627;0,204371
425,2270;0,205062
426,1912;0,20608
427,1554;0,207091
428,1197;0,20788
429,0839;0,208417
430,0481;0,208807
431,0124;0,209177
431,9766;0,209576
432,9408;0,209957
433,9051;0,210226
434,8693;0,210327
435,8335;0,210289
436,7978;0,210195
437,7620;0,210097
438,7262;0,209966
439,6905;0,209713
440,6547;0,209285
441,6189;0,208749
442,5832;0,20831
443,5474;0,208208
444,5116;0,208526
445,4759;0,209088
446,4401;0,209532
447,4043;0,2095
448,3686;0,208819
449,3328;0,207578
450,2970;0,2061
451,2613;0,204812
452,2255;0,204057
453,1897;0,203967
454,1540;0,204435
455,1182;0,205187
456,0824;0,20589
457,0467;0,206249
458,0109;0,206114
458,9751;0,205533
459,9394;0,204699
460,9036;0,203808
461,8678;0,202987
462,8321;0,202309
463,7963;0,20183
464,7605;0,201599
465,7248;0,201637
466,6890;0,201904
467,6532;0,2023
468,6175;0,202698
469,5817;0,202991
470,5459;0,203121
471,5102;0,2031
472,4744;0,202997
473,4386;0,202903
474,4029;0,202883
475,3671;0,202959
476,3313;0,203129
477,2956;0,203401
478,2598;0,203794
479,2240;0,204324
480,1883;0,204969
481,1525;0,205654
482,1167;0,20626
483,0810;0,206678
484,0452;0,206868
485,0094;0,206896
485,9737;0,206906
486,9379;0,207046
487,9021;0,207395
488,8664;0,207948
489,8306;0,208636
490,7948;0,209359
491,7591;0,210017
492,7233;0,210525
493,6875;0,210827
494,6518;0,210914
495,6160;0,210826
496,5802;0,210653
497,5445;0,210514
498,5087;0,21052
499,4729;0,210745
500,4372;0,211199
501,4014;0,211833
502,3656;0,212559
503,3299;0,213284
504,2941;0,213939
505,2583;0,214483
506,2226;0,214906
507,1868;0,215231
508,1510;0,215512
509,1153;0,215818
510,0795;0,216203
511,0437;0,216671
512,0080;0,217188
512,9722;0,217709
513,9365;0,218211
514,9007;0,218702
515,8649;0,219184
516,8292;0,21962
517,7934;0,219929
518,7576;0,220033
519,7219;0,219926
520,6861;0,219682
521,6503;0,219399
522,6146;0,219132
523,5788;0,21887
524,5430;0,218557
525,5073;0,218152
526,4715;0,217679
527,4357;0,217213
528,4000;0,21683
529,3642;0,216547
530,3284;0,216324
531,2927;0,216096
532,2569;0,215817
533,2211;0,215472
534,1854;0,215076
535,1496;0,21465
536,1138;0,214213
537,0781;0,213796
538,0423;0,213451
539,0065;0,213252
539,9708;0,21326
540,9350;0,213495
541,8992;0,213916
542,8635;0,214433
543,8277;0,214936
544,7919;0,215342
545,7562;0,215626
546,7204;0,215832
547,6846;0,216051
548,6489;0,216371
549,6131;0,21684
550,5773;0,21744
551,5416;0,218104
552,5058;0,218756
553,4700;0,219339
554,4343;0,219828
555,3985;0,220205
556,3627;0,220431
557,3270;0,22043
558,2912;0,220114
559,2554;0,219425
560,2197;0,218376
561,1839;0,217059
562,1481;0,215613
563,1124;0,214182
564,0766;0,212866
565,0408;0,211713
566,0051;0,210728
566,9693;0,20989
567,9335;0,209175
568,8978;0,208561
569,8620;0,208039
570,8262;0,207602
571,7905;0,207252
572,7547;0,206981
573,7189;0,206773
574,6832;0,206595
575,6474;0,20641
576,6116;0,206198
577,5759;0,205964
578,5401;0,205745
579,5043;0,205578
580,4686;0,205483
581,4328;0,205441
582,3970;0,205406
583,3613;0,205325
584,3255;0,205165
585,2897;0,204932
586,2540;0,204669
587,2182;0,204438
588,1824;0,204297
589,1467;0,20428
590,1109;0,204376
591,0751;0,204529
592,0394;0,204651
593,0036;0,204658
593,9678;0,204504
594,9321;0,204194
595,8963;0,203772
596,8605;0,203293
597,8248;0,202801
598,7890;0,20232
599,7532;0,201855
600,7175;0,201405
601,6817;0,200969
602,6459;0,20055
603,6102;0,200152
604,5744;0,199774
605,5386;0,199403
606,5029;0,199012
607,4671;0,198558
608,4313;0,198002
609,3956;0,197323
610,3598;0,19654
611,3240;0,195717
612,2883;0,194938
613,2525;0,194267
614,2167;0,193711
615,1810;0,193198
616,1452;0,192595
617,1094;0,191762
618,0737;0,190623
619,0379;0,189207
620,0021;0,187628
620,9664;0,18602
621,9306;0,184495
622,8948;0,183116
623,8591;0,181909
624,8233;0,180853
625,7875;0,179963
626,7518;0,179201
627,7160;0,178518
628,6802;0,177856
629,6445;0,177168
630,6087;0,176431
631,5729;0,175653
632,5372;0,174871
633,5014;0,17413
634,4656;0,173465
635,4299;0,172884
636,3941;0,172364
637,3583;0,171869
638,3226;0,171365
639,2868;0,170842
640,2510;0,170317
641,2153;0,16982
642,1795;0,169388
643,1437;0,169042
644,1080;0,168783
645,0722;0,168595
646,0364;0,168444
647,0007;0,168292
647,9649;0,168106
648,9291;0,167873
649,8934;0,167605
650,8576;0,16734
651,8218;0,167123
652,7861;0,166997
653,7503;0,166983
654,7145;0,167084
655,6788;0,167285
656,6430;0,167557
657,6072;0,167864
658,5715;0,168149
659,5357;0,168329
660,4999;0,168304
661,4642;0,16801
662,4284;0,167457
663,3926;0,166717
664,3569;0,16591
665,3211;0,165211
666,2853;0,164839
667,2496;0,164838
668,2138;0,164732
669,1780;0,163872
670,1423;0,162353
671,1065;0,160674
672,0707;0,159033
673,0350;0,157396
673,9992;0,155725
674,9634;0,154035
675,9277;0,152358
676,8919;0,150703
677,8561;0,149065
678,8204;0,147458
679,7846;0,145944
680,7488;0,144608
681,7131;0,143504
682,6773;0,142618
683,6415;0,141872
684,6058;0,141175
685,5700;0,140467
686,5342;0,139739
687,4985;0,139013
688,4627;0,138325
689,4269;0,137702
690,3912;0,137163
691,3554;0,136706
692,3196;0,136312
693,2839;0,135939
694,2481;0,135541
695,2123;0,135089
696,1766;0,134582
697,1408;0,134044
698,1050;0,133499
699,0693;0,132954
700,0335;0,132397
700,9977;0,13181
701,9620;0,131192
702,9262;0,130559
703,8904;0,12993
704,8547;0,129323
705,8189;0,128736
706,7831;0,12815
707,7474;0,127549
708,7116;0,126922
709,6758;0,126269
710,6401;0,125584
711,6043;0,124854
712,5685;0,124062
713,5328;0,123211
714,4970;0,122338
715,4612;0,121148
716,4255;0,12046
717,3897;0,119872
718,3539;0,119304
719,3182;0,118628
720,2824;0,117745
721,2466;0,11664
722,2109;0,115392
723,1751;0,114121
724,1393;0,112917
725,1036;0,111815
726,0678;0,1108
727,0320;0,10984
727,9963;0,108917
728,9605;0,108032
729,9247;0,1072
730,8890;0,106429
731,8532;0,10572
732,8174;0,105059
733,7817;0,10443
734,7459;0,10382
735,7101;0,103225
736,6744;0,102651
737,6386;0,102112
738,6028;0,10162
739,5671;0,101173
740,5313;0,100749
741,4955;0,10031
742,4598;0,0998176
743,4240;0,0992585
744,3882;0,0986509
745,3525;0,0980395
746,3167;0,0974715
747,2809;0,0969723
748,2452;0,0965338
749,2094;0,0961238
750,1736;0,0957072
751,1379;0,0952665
752,1021;0,0948066
753,0663;0,0943456
754,0306;0,0938981
754,9948;0,0934651
755,9590;0,0930365
756,9233;0,0926007
757,8875;0,0921555
758,8517;0,0917105
759,8160;0,0912829
760,7802;0,0908895
761,7444;0,0905403
762,7087;0,0902351
763,6729;0,089962
764,6371;0,0896982
765,6014;0,0894155
766,5656;0,0890902
767,5298;0,0887158
768,4941;0,0883091
769,4583;0,0879059
770,4225;0,0875448
771,3868;0,0872495
772,3510;0,0870183
773,3152;0,0868292
774,2795;0,0866538
775,2437;0,0864723
776,2079;0,0862794
777,1722;0,0860781
778,1364;0,0858691
779,1006;0,0856434
780,0649;0,0853822
781,0291;0,0850649
781,9933;0,0846786
782,9576;0,084224
783,9218;0,0837161
784,8860;0,0831793
785,8503;0,0826406
786,8145;0,0821234
787,7787;0,0816442
788,7430;0,0812116
789,7072;0,0808273
790,6714;0,0804873
791,6357;0,0801833
792,5999;0,0799044
793,5641;0,0796402
794,5284;0,0793848
795,4926;0,0791388
796,4568;0,0789066
797,4211;0,078691
798,3853;0,0784881
799,3495;0,0782875
800,3138;0,0780795
801,2780;0,0778636
802,2422;0,0776517
803,2065;0,0774611
804,1707;0,077302
805,1349;0,0771701
806,0992;0,0770484
807,0634;0,0769201
808,0276;0,0767802
808,9919;0,076638
809,9561;0,0765092
810,9203;0,0764042
811,8846;0,0763228
812,8488;0,0762568
813,8130;0,0761974
814,7773;0,07614
815,7415;0,0760826
816,7057;0,0760226
817,6700;0,0759559
818,6342;0,0758803
819,5984;0,075798
820,5627;0,0757139
821,5269;0,0756302
822,4911;0,0755419
823,4554;0,0754382
824,4196;0,0753101
825,3839;0,0751576
826,3481;0,0749898
827,3123;0,0748182
828,2766;0,0746492
829,2408;0,0744816
830,2050;0,0743103
831,1693;0,0741319
832,1335;0,0739468
833,0977;0,0737556
834,0620;0,0735553
835,0262;0,0733383
835,9904;0,0730972
836,9547;0,07283
837,9189;0,0725424
838,8831;0,0722448
839,8474;0,0719476
840,8116;0,0716591
841,7758;0,071386
842,7401;0,0711356
843,7043;0,0709147
844,6685;0,0707262
845,6328;0,0705645
846,5970;0,0704159
847,5612;0,0702641
848,5255;0,0700983
849,4897;0,0699199
850,4539;0,0697417
851,4182;0,0695813
852,3824;0,0694522
853,3466;0,0693569
854,3109;0,0692865
855,2751;0,0692263
856,2393;0,0691637
857,2036;0,0690933
858,1678;0,0690177
859,1320;0,0689439
860,0963;0,0688783
861,0605;0,0688252
862,0247;0,0687883
862,9890;0,0687752
863,9532;0,0687987
864,9174;0,0688743
865,8817;0,0690132
866,8459;0,0692163
867,8101;0,0694716
868,7744;0,0697597
869,7386;0,0700608
870,7028;0,070363
871,6671;0,0706634
872,6313;0,0709649
873,5955;0,0712701
874,5598;0,0715774
875,5240;0,0718823
876,4882;0,0721819
877,4525;0,0724811
878,4167;0,0727942
879,3809;0,0731419
880,3452;0,0735445
881,3094;0,0740157
882,2736;0,0745597
883,2379;0,0751728
884,2021;0,0758477
885,1663;0,0765781
886,1306;0,0773605
887,0948;0,0781936
888,0590;0,0790746
889,0233;0,0799953
889,9875;0,0809376
890,9517;0,081872
891,9160;0,0827591
892,8802;0,0835559
893,8444;0,0842239
894,8087;0,0847361
895,7729;0,0850784
896,7371;0,0852459
897,7014;0,0852376
898,6656;0,0850542
899,6298;0,084703
900,5941;0,0842041
901,5583;0,0835947
902,5225;0,082924
903,4868;0,0822417
904,4510;0,0815855
905,4152;0,0809771
906,3795;0,0804248
907,3437;0,0799334
908,3079;0,0795094
909,2722;0,0791613
910,2364;0,0788947
911,2007;0,078708
912,1649;0,0785939
913,1292;0,0785445
914,0934;0,0785562
915,0576;0,0786311
916,0219;0,0787722
916,9861;0,0789781
917,9503;0,0792399
918,9146;0,0795429
919,8788;0,079872
920,8430;0,0802158
921,8073;0,0805675
922,7715;0,0809231
923,7357;0,0812781
924,7000;0,0816256
925,6642;0,0819581
926,6284;0,0822706
927,5927;0,0825637
928,5569;0,0828437
929,5211;0,08312
930,4854;0,0833996
931,4496;0,0836856
932,4138;0,0839783
933,3781;0,084282
934,3423;0,0846096
935,3065;0,0849839
936,2708;0,0854301
937,2350;0,0859656
938,1992;0,0865925
939,1635;0,087299
940,1277;0,0880679
941,0919;0,0888897
942,0562;0,0897697
943,0204;0,0907256
943,9846;0,0917779
944,9489;0,0929375
945,9131;0,0941992
946,8773;0,0955428
947,8416;0,096941
948,8058;0,0983703
949,7700;0,0998179
950,7343;0,101284
951,6985;0,102776
952,6627;0,104305
953,6270;0,105877
954,5912;0,107492
955,5554;0,109147
956,5197;0,110842
957,4839;0,112577
958,4481;0,114359
959,4124;0,116191
960,3766;0,118069
961,3408;0,119988
962,3051;0,12194
963,2693;0,123917
964,2335;0,125919
965,1978;0,127949
966,1620;0,130016
967,1262;0,132137
968,0905;0,134336
969,0547;0,136642
970,0189;0,139085
970,9832;0,141688
971,9474;0,144469
972,9116;0,147439
973,8759;0,150613
974,8401;0,15401
975,8043;0,157647
976,7686;0,161522
977,7328;0,165606
978,6970;0,169831
979,6613;0,1741
980,6255;0,178296
981,5897;0,1823
982,5540;0,186008
983,5182;0,189349
984,4824;0,192295
985,4467;0,194867
986,4109;0,197118
987,3751;0,199116
988,3394;0,200922
989,3036;0,202571
990,2678;0,204076
991,2321;0,205437
992,1963;0,206654
993,1605;0,207729
994,1248;0,208674
995,0890;0,209502
996,0532;0,210231
997,0175;0,210882
997,9817;0,211485
998,9459;0,212074
999,9102;0,212689
1000,8744;0,213374
1001,8386;0,214176
1002,8029;0,215144
1003,7671;0,216317
1004,7313;0,217722
1005,6956;0,219363
1006,6598;0,221227
1007,6240;0,223295
1008,5883;0,225542
1009,5525;0,227947
1010,5167;0,230489
1011,4810;0,233138
1012,4452;0,235848
1013,4094;0,238564
1014,3737;0,241225
1015,3379;0,243771
1016,3021;0,24616
1017,2664;0,248368
1018,2306;0,250395
1019,1948;0,252255
1020,1591;0,253969
1021,1233;0,255558
1022,0875;0,257036
1023,0518;0,258411
1024,0160;0,259687
1024,9802;0,260864
1025,9445;0,26194
1026,9087;0,262899
1027,8729;0,26371
1028,8372;0,264322
1029,8014;0,26466
1030,7656;0,264637
1031,7299;0,264159
1032,6941;0,263151
1033,6583;0,261583
1034,6226;0,25949
1035,5868;0,256988
1036,5510;0,254254
1037,5153;0,251506
1038,4795;0,248957
1039,4437;0,246786
1040,4080;0,245108
1041,3722;0,243969
1042,3364;0,243338
1043,3007;0,243124
1044,2649;0,243193
1045,2291;0,243391
1046,1934;0,243582
1047,1576;0,24366
1048,1218;0,243557
1049,0861;0,243234
1050,0503;0,242657
1051,0145;0,241793
1051,9788;0,240616
1052,9430;0,23912
1053,9072;0,237326
1054,8715;0,235276
1055,8357;0,232996
1056,7999;0,230475
1057,7642;0,227652
1058,7284;0,224448
1059,6926;0,220817
1060,6569;0,216788
1061,6211;0,21248
1062,5853;0,208078
1063,5496;0,203778
1064,5138;0,19973
1065,4780;0,196016
1066,4423;0,192641
1067,4065;0,189563
1068,3707;0,18672
1069,3350;0,18405
1070,2992;0,181508
1071,2634;0,179056
1072,2277;0,17666
1073,1919;0,174281
1074,1561;0,171879
1075,1204;0,169421
1076,0846;0,166893
1077,0488;0,164313
1078,0131;0,161731
1078,9773;0,159224
1079,9415;0,156876
1080,9058;0,154763
1081,8700;0,152933
1082,8342;0,151405
1083,7985;0,150167
1084,7627;0,149183
1085,7269;0,148404
1086,6912;0,147778
1087,6554;0,147262
1088,6196;0,146829
1089,5839;0,146471
1090,5481;0,146194
1091,5123;0,146014
1092,4766;0,145942
1093,4408;0,145979
1094,4050;0,146114
1095,3693;0,146326
1096,3335;0,146589
1097,2977;0,146881
1098,2620;0,147183
1099,2262;0,147477
1100,1904;0,147742
1101,1547;0,147953
1102,1189;0,148083
1103,0831;0,148111
1104,0474;0,148036
1105,0116;0,147874
1105,9758;0,147654
1106,9401;0,147398
1107,9043;0,147103
1108,8685;0,146726
1109,8328;0,146192
1110,7970;0,145413
1111,7612;0,144323
1112,7255;0,142902
1113,6897;0,141196
1114,6539;0,139305
1115,6182;0,137356
1116,5824;0,135471
1117,5466;0,133733
1118,5109;0,132164
1119,4751;0,130729
1120,4393;0,129348
1121,4036;0,127925
1122,3678;0,126369
1123,3320;0,124613
1124,2963;0,122624
1125,2605;0,120404
1126,2247;0,117985
1127,1890;0,11542
1128,1532;0,112772
1129,1174;0,110104
1130,0817;0,107466
1131,0459;0,104893
1132,0101;0,102407
1132,9744;0,10003
1133,9386;0,0977943
1134,9028;0,095744
1135,8671;0,0939324
1136,8313;0,0924089
1137,7955;0,0912068
1138,7598;0,0903371
1139,7240;0,0897888
1140,6882;0,0895348
1141,6525;0,0895386
1142,6167;0,0897594
1143,5809;0,0901546
1144,5452;0,0906831
1145,5094;0,0913078
1146,4736;0,0919995
1147,4379;0,0927385
1148,4021;0,0935126
1149,3663;0,094312
1150,3306;0,0951219
1151,2948;0,095918
1152,2590;0,0966662
1153,2233;0,0973266
1154,1875;0,0978598
1155,1517;0,0982292
1156,1160;0,0983989
1157,0802;0,0983281
1158,0444;0,0979655
1159,0087;0,0972505
1159,9729;0,0961204
1160,9371;0,0945248
1161,9014;0,0924412
1162,8656;0,0898867
1163,8298;0,086923
1164,7941;0,0836525
1165,7583;0,0802057
1166,7225;0,0767235
1167,6868;0,0733363
1168,6510;0,0701473
1169,6152;0,0672222
1170,5795;0,0645898
1171,5437;0,0622507
1172,5079;0,06019
1173,4722;0,0583881
1174,4364;0,0568263
1175,4006;0,0554862
1176,3649;0,0543472
1177,3291;0,053385
1178,2933;0,0525728
1179,2576;0,0518847
1180,2218;0,0512998
1181,1860;0,0508044
1182,1503;0,0503912
1183,1145;0,0500571
1184,0787;0,0498006
1185,0430;0,0496205
1186,0072;0,0495162
1186,9714;0,0494893
1187,9357;0,0495444
1188,8999;0,0496885
1189,8641;0,0499282
1190,8284;0,0502666
1191,7926;0,0507012
1192,7568;0,0512234
1193,7211;0,0518203
1194,6853;0,0524759
1195,6495;0,0531734
1196,6138;0,0538962
1197,5780;0,0546291
1198,5422;0,0553593
1199,5065;0,0558622
1200,4707;0,0565864
1201,4349;0,0572866
1202,3992;0,0579545
1203,3634;0,0585798
1204,3276;0,0591522
1205,2919;0,0596655
1206,2561;0,0601218
1207,2203;0,060534
1208,1846;0,0609253
1209,1488;0,061325
1210,1130;0,0617632
1211,0773;0,0622655
1212,0415;0,0628492
1213,0057;0,0635212
1213,9700;0,0642777
1214,9342;0,0651048
1215,8984;0,0659817
1216,8627;0,0668823
1217,8269;0,0677807
1218,7911;0,0686589
1219,7554;0,0695076
1220,7196;0,0703252
1221,6838;0,0711126
1222,6481;0,071868
1223,6123;0,0725849
1224,5765;0,0732547
1225,5408;0,0738709
1226,5050;0,0744327
1227,4692;0,0749456
1228,4335;0,0754173
1229,3977;0,0758524
1230,3619;0,0762493
1231,3262;0,0765993
1232,2904;0,0768901
1233,2546;0,0771112
1234,2189;0,0772583
1235,1831;0,0773366
1236,1473;0,0773601
1237,1116;0,0773473
1238,0758;0,0773157
1239,0400;0,0772764
1240,0043;0,077232
1240,9685;0,0771775
1241,9327;0,0771037
1242,8970;0,0770006
1243,8612;0,0768595
1244,8254;0,076675
1245,7897;0,0764448
1246,7539;0,0761712
1247,7181;0,0758613
1248,6824;0,0755256
1249,6466;0,0751762
1250,6108;0,0748245
1251,5751;0,0744796
1252,5393;0,0741489
1253,5035;0,0738384
1254,4678;0,073552
1255,4320;0,073289
1256,3962;0,0730421
1257,3605;0,0727979
1258,3247;0,0725401
1259,2889;0,0722544
1260,2532;0,0719329
1261,2174;0,0715745
1262,1816;0,0711821
1263,1459;0,0707594
1264,1101;0,0703099
1265,0743;0,0698371
1266,0386;0,0693445
1267,0028;0,0688346
1267,9670;0,0683057
1268,9313;0,0677512
1269,8955;0,067162
1270,8597;0,0665322
1271,8240;0,065864
1272,7882;0,0651703
1273,7524;0,0644715
1274,7167;0,0637904
1275,6809;0,0631458
1276,6451;0,0625484
1277,6094;0,0619967
1278,5736;0,061477
1279,5378;0,0609673
1280,5021;0,0604458
1281,4663;0,0599006
1282,4305;0,0593359
1283,3948;0,0587706
1284,3590;0,0582313
1285,3232;0,057743
1286,2875;0,0573229
1287,2517;0,056979
1288,2159;0,0567122
1289,1802;0,0565194
1290,1444;0,0563969
1291,1086;0,0563417
1292,0729;0,0563532
1293,0371;0,0564334
1294,0013;0,0565863
1294,9656;0,056815
1295,9298;0,0571192
1296,8940;0,0574944
1297,8583;0,0579348
1298,8225;0,0584358
1299,7867;0,0589963
1300,7510;0,0596158
1301,7152;0,0602948
1302,6794;0,0610286
1303,6437;0,0618092
1304,6079;0,0626295
1305,5721;0,0634846
1306,5364;0,064372
1307,5006;0,0652909
1308,4648;0,0662399
1309,4291;0,0672139
1310,3933;0,0682001
1311,3575;0,0691743
1312,3218;0,0701012
1313,2860;0,07094
1314,2502;0,0716526
1315,2145;0,0722098
1316,1787;0,0725904
1317,1429;0,07278
1318,1072;0,072775
1319,0714;0,0725918
1320,0356;0,072272
1320,9999;0,0718745
1321,9641;0,0714576
1322,9283;0,0710638
1323,8926;0,0707155
1324,8568;0,0704203
1325,8210;0,0701768
1326,7853;0,0699787
1327,7495;0,0698152
1328,7137;0,0696704
1329,6780;0,0695237
1330,6422;0,0693549
1331,6064;0,0691514
1332,5707;0,0689118
1333,5349;0,0686464
1334,4991;0,0683664
1335,4634;0,0680709
1336,4276;0,0677349
1337,3918;0,0673064
1338,3561;0,0667275
1339,3203;0,0659831
1340,2845;0,0651375
1341,2488;0,0643048
1342,2130;0,0635801
1343,1772;0,0630009
1344,1415;0,0625621
1345,1057;0,0622443
1346,0699;0,0620311
1347,0342;0,061912
1347,9984;0,061882
1348,9626;0,0619395
1349,9269;0,0620827
1350,8911;0,062305
1351,8553;0,0625916
1352,8196;0,0629212
1353,7838;0,0632733
1354,7480;0,0636361
1355,7123;0,0640123
1356,6765;0,0644152
1357,6407;0,0648592
1358,6050;0,0653524
1359,5692;0,0658897
1360,5334;0,0664418
1361,4977;0,0669512
