TITLE;
DATA TYPE;INFRARED SPECTRUM
ORIGIN;JASCO
OWNER;
DATE;25/03/18
TIME;11:52:29
SPECTROMETER/DATA SYSTEM;
LOCALE;9226
RESOLUTION;
DELTAX;0,964233
XUNITS;1/CM
YUNITS;ABSORBANCE
FIRSTX;  399,1927
LASTX; 4000,6047
NPOINTS;    3736
FIRSTY;     0,18631
MAXY;     0,22098
MINY;     0,01285
XYDATA
399,1927;0,186307
400,1569;0,186065
401,1211;0,185822
402,0854;0,185798
403,0496;0,186066
404,0138;0,186617
404,9781;0,187387
405,9423;0,18825
406,9065;0,189028
407,8708;0,189551
408,8350;0,189717
409,7992;0,189532
410,7635;0,189084
411,7277;0,1885
412,6919;0,187874
413,6562;0,187246
414,6204;0,186639
415,5846;0,186138
416,5489;0,185964
417,5131;0,186463
418,4773;0,187855
419,4416;0,189804
420,4058;0,191508
421,3700;0,192385
422,3343;0,192389
423,2985;0,191786
424,2627;0,190928
425,2270;0,19017
426,1912;0,189809
427,1554;0,190005
428,1197;0,190751
429,0839;0,191888
430,0481;0,193158
431,0124;0,194271
431,9766;0,194981
432,9408;0,195178
433,9051;0,194915
434,8693;0,194378
435,8335;0,193783
436,7978;0,193257
437,7620;0,192779
438,7262;0,19222
439,6905;0,191445
440,6547;0,190421
441,6189;0,189282
442,5832;0,18829
443,5474;0,18771
444,5116;0,187641
445,4759;0,187962
446,4401;0,188437
447,4043;0,188878
448,3686;0,189232
449,3328;0,189546
450,2970;0,189874
451,2613;0,190181
452,2255;0,190326
453,1897;0,190135
454,1540;0,189513
455,1182;0,188528
456,0824;0,187416
457,0467;0,186515
458,0109;0,186098
458,9751;0,186199
459,9394;0,186613
460,9036;0,187079
461,8678;0,187444
462,8321;0,187685
463,7963;0,187837
464,7605;0,187915
465,7248;0,187873
466,6890;0,187638
467,6532;0,18717
468,6175;0,186521
469,5817;0,185843
470,5459;0,185353
471,5102;0,185244
472,4744;0,185578
473,4386;0,18622
474,4029;0,186917
475,3671;0,187437
476,3313;0,187675
477,2956;0,187651
478,2598;0,187463
479,2240;0,187224
480,1883;0,187025
481,1525;0,18691
482,1167;0,186888
483,0810;0,186954
484,0452;0,187094
485,0094;0,187289
485,9737;0,187514
486,9379;0,18774
487,9021;0,187952
488,8664;0,188154
489,8306;0,188361
490,7948;0,188581
491,7591;0,188799
492,7233;0,188984
493,6875;0,189109
494,6518;0,189181
495,6160;0,189239
496,5802;0,189333
497,5445;0,189485
498,5087;0,189667
499,4729;0,189805
500,4372;0,189811
501,4014;0,18964
502,3656;0,189333
503,3299;0,189019
504,2941;0,188858
505,2583;0,188963
506,2226;0,189359
507,1868;0,189975
508,1510;0,19068
509,1153;0,191342
510,0795;0,191889
511,0437;0,192328
512,0080;0,192719
512,9722;0,19312
513,9365;0,19355
514,9007;0,193978
515,8649;0,194341
516,8292;0,194584
517,7934;0,19469
518,7576;0,194693
519,7219;0,194651
520,6861;0,194611
521,6503;0,194589
522,6146;0,194579
523,5788;0,194558
524,5430;0,194496
525,5073;0,194359
526,4715;0,194125
527,4357;0,19379
528,4000;0,193377
529,3642;0,192927
530,3284;0,192482
531,2927;0,192075
532,2569;0,191721
533,2211;0,191417
534,1854;0,191144
535,1496;0,190886
536,1138;0,190638
537,0781;0,19041
538,0423;0,190221
539,0065;0,190084
539,9708;0,189995
540,9350;0,189928
541,8992;0,189846
542,8635;0,189717
543,8277;0,189535
544,7919;0,189334
545,7562;0,189184
546,7204;0,189169
547,6846;0,18934
548,6489;0,189684
549,6131;0,190122
550,5773;0,190544
551,5416;0,190869
552,5058;0,19109
553,4700;0,191277
554,4343;0,191526
555,3985;0,191885
556,3627;0,1923
557,3270;0,192619
558,2912;0,192661
559,2554;0,192304
560,2197;0,19155
561,1839;0,190513
562,1481;0,189367
563,1124;0,18826
564,0766;0,187274
565,0408;0,186418
566,0051;0,185665
566,9693;0,184994
567,9335;0,184405
568,8978;0,183906
569,8620;0,183494
570,8262;0,18314
571,7905;0,182804
572,7547;0,182457
573,7189;0,182097
574,6832;0,181748
575,6474;0,181441
576,6116;0,181186
577,5759;0,180965
578,5401;0,180744
579,5043;0,180497
580,4686;0,180227
581,4328;0,179956
582,3970;0,179707
583,3613;0,179477
584,3255;0,179239
585,2897;0,178969
586,2540;0,178669
587,2182;0,178385
588,1824;0,178183
589,1467;0,178112
590,1109;0,178168
591,0751;0,178282
592,0394;0,178347
593,0036;0,17827
593,9678;0,17801
594,9321;0,177585
595,8963;0,177054
596,8605;0,176485
597,8248;0,175941
598,7890;0,17547
599,7532;0,175098
600,7175;0,174814
601,6817;0,174577
602,6459;0,174324
603,6102;0,174003
604,5744;0,173598
605,5386;0,173128
606,5029;0,172632
607,4671;0,172138
608,4313;0,171641
609,3956;0,171114
610,3598;0,170531
611,3240;0,169896
612,2883;0,169249
613,2525;0,168637
614,2167;0,168082
615,1810;0,167561
616,1452;0,167008
617,1094;0,16635
618,0737;0,165544
619,0379;0,164596
620,0021;0,163543
620,9664;0,162429
621,9306;0,161289
622,8948;0,160161
623,8591;0,159093
624,8233;0,158148
625,7875;0,15737
626,7518;0,156767
627,7160;0,156295
628,6802;0,155876
629,6445;0,155428
630,6087;0,1549
631,5729;0,154279
632,5372;0,15359
633,5014;0,152875
634,4656;0,152183
635,4299;0,151555
636,3941;0,15102
637,3583;0,150588
638,3226;0,150246
639,2868;0,149961
640,2510;0,149679
641,2153;0,149345
642,1795;0,14892
643,1437;0,148402
644,1080;0,147831
645,0722;0,147276
646,0364;0,146805
647,0007;0,146454
647,9649;0,146212
648,9291;0,146029
649,8934;0,145854
650,8576;0,145666
651,8218;0,145484
652,7861;0,145354
653,7503;0,145317
654,7145;0,145384
655,6788;0,145537
656,6430;0,145735
657,6072;0,14593
658,5715;0,146074
659,5357;0,146117
660,4999;0,146034
661,4642;0,145841
662,4284;0,145606
663,3926;0,145414
664,3569;0,145322
665,3211;0,145321
666,2853;0,145299
667,2496;0,144996
668,2138;0,144131
669,1780;0,14275
670,1423;0,141245
671,1065;0,139877
672,0707;0,138623
673,0350;0,137361
673,9992;0,135996
674,9634;0,134514
675,9277;0,132988
676,8919;0,131527
677,8561;0,130211
678,8204;0,129053
679,7846;0,128029
680,7488;0,127115
681,7131;0,126299
682,6773;0,125575
683,6415;0,12493
684,6058;0,124355
685,5700;0,123842
686,5342;0,123389
687,4985;0,122987
688,4627;0,122612
689,4269;0,122232
690,3912;0,121823
691,3554;0,121382
692,3196;0,120926
693,2839;0,120486
694,2481;0,12009
695,2123;0,119754
696,1766;0,119475
697,1408;0,119231
698,1050;0,118991
699,0693;0,118724
700,0335;0,118405
700,9977;0,118018
701,9620;0,11756
702,9262;0,117035
703,8904;0,11646
704,8547;0,115858
705,8189;0,115256
706,7831;0,114682
707,7474;0,114148
708,7116;0,113645
709,6758;0,113147
710,6401;0,112618
711,6043;0,112028
712,5685;0,111373
713,5328;0,110681
714,4970;0,109997
715,4612;0,109392
716,4255;0,108823
717,3897;0,108295
718,3539;0,107756
719,3182;0,10714
720,2824;0,106407
721,2466;0,105562
722,2109;0,10465
723,1751;0,10373
724,1393;0,102855
725,1036;0,102048
726,0678;0,10131
727,0320;0,10062
727,9963;0,0999474
728,9605;0,0992671
729,9247;0,0985714
730,8890;0,0978762
731,8532;0,0972138
732,8174;0,0966154
733,7817;0,0960933
734,7459;0,0956348
735,7101;0,0952104
736,6744;0,0947917
737,6386;0,094367
738,6028;0,0939442
739,5671;0,093542
740,5313;0,0931766
741,4955;0,0928515
742,4598;0,0925551
743,4240;0,0922651
744,3882;0,0919559
745,3525;0,0916072
746,3167;0,091211
747,2809;0,0907751
748,2452;0,090322
749,2094;0,0898812
750,1736;0,0894776
751,1379;0,0891211
752,1021;0,0888027
753,0663;0,0884989
754,0306;0,0881831
754,9948;0,0878386
755,9590;0,087466
756,9233;0,0870817
757,8875;0,0867079
758,8517;0,0863601
759,8160;0,0860395
760,7802;0,0857347
761,7444;0,0854311
762,7087;0,0851221
763,6729;0,0848132
764,6371;0,0845179
765,6014;0,0842474
766,5656;0,0840028
767,5298;0,0837729
768,4941;0,0835398
769,4583;0,0832867
770,4225;0,0830049
771,3868;0,0826967
772,3510;0,0823762
773,3152;0,0820651
774,2795;0,081785
775,2437;0,0815471
776,2079;0,0813429
777,1722;0,0811424
778,1364;0,0809029
779,1006;0,0805864
780,0649;0,0801763
781,0291;0,0796845
781,9933;0,0791444
782,9576;0,0785949
783,9218;0,0780644
784,8860;0,077563
785,8503;0,077086
786,8145;0,0766261
787,7787;0,0761841
788,7430;0,0757738
789,7072;0,075416
790,6714;0,0751269
791,6357;0,0749061
792,5999;0,0747334
793,5641;0,0745747
794,5284;0,0743961
795,4926;0,0741772
796,4568;0,0739171
797,4211;0,0736329
798,3853;0,0733504
799,3495;0,0730951
800,3138;0,0728847
801,2780;0,0727256
802,2422;0,0726113
803,2065;0,0725227
804,1707;0,0724341
805,1349;0,0723222
806,0992;0,0721772
807,0634;0,072008
808,0276;0,0718366
808,9919;0,0716839
809,9561;0,0715556
810,9203;0,0714378
811,8846;0,0713059
812,8488;0,0711422
813,8130;0,0709499
814,7773;0,0707539
815,7415;0,0705878
816,7057;0,070476
817,6700;0,0704221
818,6342;0,0704094
819,5984;0,0704132
820,5627;0,0704135
821,5269;0,0704023
822,4911;0,0703813
823,4554;0,0703547
824,4196;0,0703233
825,3839;0,0702845
826,3481;0,0702359
827,3123;0,0701794
828,2766;0,0701207
829,2408;0,0700641
830,2050;0,0700071
831,1693;0,0699386
832,1335;0,069843
833,0977;0,0697076
834,0620;0,0695286
835,0262;0,0693131
835,9904;0,0690755
836,9547;0,0688311
837,9189;0,0685921
838,8831;0,068366
839,8474;0,068157
840,8116;0,067969
841,7758;0,0678068
842,7401;0,067675
843,7043;0,0675758
844,6685;0,0675057
845,6328;0,067455
846,5970;0,0674094
847,5612;0,067356
848,5255;0,0672885
849,4897;0,0672108
850,4539;0,067135
851,4182;0,0670751
852,3824;0,067039
853,3466;0,0670244
854,3109;0,0670202
855,2751;0,0670129
856,2393;0,0669927
857,2036;0,0669567
858,1678;0,0669081
859,1320;0,0668526
860,0963;0,0667966
861,0605;0,0667472
862,0247;0,0667123
862,9890;0,0666994
863,9532;0,0667126
864,9174;0,0667502
865,8817;0,0668051
866,8459;0,0668694
867,8101;0,0669393
868,7744;0,0670161
869,7386;0,0671022
870,7028;0,067195
871,6671;0,067283
872,6313;0,0673497
873,5955;0,0673822
874,5598;0,0673807
875,5240;0,0673606
876,4882;0,0673463
877,4525;0,0673608
878,4167;0,0674187
879,3809;0,0675261
880,3452;0,0676874
881,3094;0,0679103
882,2736;0,0682064
883,2379;0,0685851
884,2021;0,0690466
885,1663;0,0695807
886,1306;0,0701715
887,0948;0,0708054
888,0590;0,0714767
889,0233;0,0721851
889,9875;0,0729272
890,9517;0,0736877
891,9160;0,0744367
892,8802;0,0751343
893,8444;0,0757414
894,8087;0,0762303
895,7729;0,0765909
896,7371;0,0768285
897,7014;0,0769558
898,6656;0,0769827
899,6298;0,0769103
900,5941;0,076732
901,5583;0,0764429
902,5225;0,0760529
903,4868;0,0755951
904,4510;0,0751239
905,4152;0,0747015
906,3795;0,0743772
907,3437;0,0741717
908,3079;0,0740738
909,2722;0,0740512
910,2364;0,0740699
911,2007;0,0741111
912,1649;0,0741785
913,1292;0,0742929
914,0934;0,0744787
915,0576;0,0747509
916,0219;0,0751073
916,9861;0,0755278
917,9503;0,0759813
918,9146;0,0764346
919,8788;0,0768613
920,8430;0,077248
921,8073;0,0775949
922,7715;0,0779112
923,7357;0,0782083
924,7000;0,0784919
925,6642;0,0787595
926,6284;0,0790011
927,5927;0,0792045
928,5569;0,0793609
929,5211;0,0794686
930,4854;0,0795344
931,4496;0,0795718
932,4138;0,0795986
933,3781;0,0796337
934,3423;0,0796948
935,3065;0,0797971
936,2708;0,0799524
937,2350;0,0801705
938,1992;0,0804586
939,1635;0,0808208
940,1277;0,0812559
941,0919;0,0817567
942,0562;0,0823109
943,0204;0,0829063
943,9846;0,0835367
944,9489;0,0842065
945,9131;0,0849309
946,8773;0,0857309
947,8416;0,0866255
948,8058;0,0876237
949,7700;0,0887208
950,7343;0,0899002
951,6985;0,0911405
952,6627;0,092424
953,6270;0,0937437
954,5912;0,0951056
955,5554;0,0965243
956,5197;0,0980154
957,4839;0,0995872
958,4481;0,101236
959,4124;0,102945
960,3766;0,104693
961,3408;0,10646
962,3051;0,108231
963,2693;0,110004
964,2335;0,111783
965,1978;0,113579
966,1620;0,115403
967,1262;0,117268
968,0905;0,119188
969,0547;0,121182
970,0189;0,123273
970,9832;0,125487
971,9474;0,127846
972,9116;0,130371
973,8759;0,133076
974,8401;0,135971
975,8043;0,139062
976,7686;0,142346
977,7328;0,145804
978,6970;0,149393
979,6613;0,153042
980,6255;0,156663
981,5897;0,160158
982,5540;0,163438
983,5182;0,166437
984,4824;0,169119
985,4467;0,17148
986,4109;0,173546
987,3751;0,175362
988,3394;0,176978
989,3036;0,178433
990,2678;0,179744
991,2321;0,180906
992,1963;0,181906
993,1605;0,182732
994,1248;0,183394
995,0890;0,183924
996,0532;0,184366
997,0175;0,184763
997,9817;0,185145
998,9459;0,185527
999,9102;0,185917
1000,8744;0,186327
1001,8386;0,186783
1002,8029;0,187328
1003,7671;0,188009
1004,7313;0,188869
1005,6956;0,189931
1006,6598;0,191202
1007,6240;0,192667
1008,5883;0,1943
1009,5525;0,196072
1010,5167;0,197955
1011,4810;0,199916
1012,4452;0,201917
1013,4094;0,203912
1014,3737;0,205847
1015,3379;0,207666
1016,3021;0,209325
1017,2664;0,210799
1018,2306;0,212086
1019,1948;0,213206
1020,1591;0,214195
1021,1233;0,21509
1022,0875;0,215928
1023,0518;0,216731
1024,0160;0,217511
1024,9802;0,218267
1025,9445;0,218988
1026,9087;0,219655
1027,8729;0,220237
1028,8372;0,220693
1029,8014;0,220964
1030,7656;0,220984
1031,7299;0,220682
1032,6941;0,220003
1033,6583;0,218924
1034,6226;0,217464
1035,5868;0,215696
1036,5510;0,213736
1037,5153;0,211723
1038,4795;0,209803
1039,4437;0,208097
1040,4080;0,206685
1041,3722;0,205604
1042,3364;0,204844
1043,3007;0,20436
1044,2649;0,20408
1045,2291;0,203921
1046,1934;0,203796
1047,1576;0,203624
1048,1218;0,203338
1049,0861;0,202886
1050,0503;0,202232
1051,0145;0,201356
1051,9788;0,200252
1052,9430;0,19893
1053,9072;0,197408
1054,8715;0,195708
1055,8357;0,193838
1056,7999;0,191784
1057,7642;0,189512
1058,7284;0,186977
1059,6926;0,184157
1060,6569;0,181071
1061,6211;0,1778
1062,5853;0,174469
1063,5496;0,171217
1064,5138;0,16816
1065,4780;0,165365
1066,4423;0,162845
1067,4065;0,160571
1068,3707;0,158497
1069,3350;0,15658
1070,2992;0,154784
1071,2634;0,153074
1072,2277;0,151411
1073,1919;0,149744
1074,1561;0,14802
1075,1204;0,1462
1076,0846;0,144275
1077,0488;0,142267
1078,0131;0,140222
1078,9773;0,1382
1079,9415;0,136255
1080,9058;0,134429
1081,8700;0,132752
1082,8342;0,131239
1083,7985;0,129895
1084,7627;0,128716
1085,7269;0,127691
1086,6912;0,126806
1087,6554;0,126048
1088,6196;0,125413
1089,5839;0,124903
1090,5481;0,124523
1091,5123;0,124276
1092,4766;0,12416
1093,4408;0,124163
1094,4050;0,12427
1095,3693;0,124464
1096,3335;0,124727
1097,2977;0,125044
1098,2620;0,125393
1099,2262;0,125754
1100,1904;0,1261
1101,1547;0,126399
1102,1189;0,12662
1103,0831;0,126738
1104,0474;0,126738
1105,0116;0,126627
1105,9758;0,126425
1106,9401;0,126158
1107,9043;0,125837
1108,8685;0,125447
1109,8328;0,124943
1110,7970;0,124263
1111,7612;0,123358
1112,7255;0,122215
1113,6897;0,120869
1114,6539;0,119399
1115,6182;0,117906
1116,5824;0,116477
1117,5466;0,115171
1118,5109;0,114002
1119,4751;0,112946
1120,4393;0,11195
1121,4036;0,110941
1122,3678;0,109845
1123,3320;0,108598
1124,2963;0,107162
1125,2605;0,10553
1126,2247;0,103729
1127,1890;0,101808
1128,1532;0,0998238
1129,1174;0,0978265
1130,0817;0,0958506
1131,0459;0,0939172
1132,0101;0,0920426
1132,9744;0,0902481
1133,9386;0,0885648
1134,9028;0,0870313
1135,8671;0,0856862
1136,8313;0,0845603
1137,7955;0,0836711
1138,7598;0,0830226
1139,7240;0,082607
1140,6882;0,0824069
1141,6525;0,0823964
1142,6167;0,0825413
1143,5809;0,0828026
1144,5452;0,0831423
1145,5094;0,0835313
1146,4736;0,0839541
1147,4379;0,084409
1148,4021;0,0849011
1149,3663;0,085433
1150,3306;0,0859968
1151,2948;0,0865719
1152,2590;0,0871283
1153,2233;0,0876326
1154,1875;0,0880529
1155,1517;0,0883588
1156,1160;0,0885187
1157,0802;0,0884954
1158,0444;0,0882444
1159,0087;0,087715
1159,9729;0,086856
1160,9371;0,0856249
1161,9014;0,0839992
1162,8656;0,0819867
1163,8298;0,0796318
1164,7941;0,0770133
1165,7583;0,0742351
1166,7225;0,0714093
1167,6868;0,0686398
1168,6510;0,0660094
1169,6152;0,0635737
1170,5795;0,0613624
1171,5437;0,059385
1172,5079;0,0576378
1173,4722;0,0561102
1174,4364;0,054788
1175,4006;0,0536545
1176,3649;0,0526906
1177,3291;0,0518749
1178,2933;0,0511849
1179,2576;0,0505992
1180,2218;0,0501002
1181,1860;0,0496764
1182,1503;0,0493224
1183,1145;0,049038
1184,0787;0,0488263
1185,0430;0,0486915
1186,0072;0,0486378
1186,9714;0,0486688
1187,9357;0,0487866
1188,8999;0,0489905
1189,8641;0,0492772
1190,8284;0,0496408
1191,7926;0,0500744
1192,7568;0,0505718
1193,7211;0,0511274
1194,6853;0,0517354
1195,6495;0,0523873
1196,6138;0,0530716
1197,5780;0,0537739
1198,5422;0,0544797
1199,5065;0,0551624
1200,4707;0,0558449
1201,4349;0,0565071
1202,3992;0,0571466
1203,3634;0,057761
1204,3276;0,0583461
1205,2919;0,0588977
1206,2561;0,0594139
1207,2203;0,0598993
1208,1846;0,0603677
1209,1488;0,0608421
1210,1130;0,0613515
1211,0773;0,0619233
1212,0415;0,0625756
1213,0057;0,0633122
1213,9700;0,0641219
1214,9342;0,0649836
1215,8984;0,0658737
1216,8627;0,066772
1217,8269;0,0676647
1218,7911;0,0685447
1219,7554;0,0694081
1220,7196;0,0702515
1221,6838;0,0710701
1222,6481;0,0718567
1223,6123;0,0726032
1224,5765;0,0733027
1225,5408;0,0739516
1226,5050;0,0745512
1227,4692;0,0751063
1228,4335;0,0756236
1229,3977;0,0761083
1230,3619;0,0765615
1231,3262;0,0769785
1232,2904;0,07735
1233,2546;0,0776647
1234,2189;0,0779133
1235,1831;0,0780926
1236,1473;0,0782077
1237,1116;0,07827
1238,0758;0,0782934
1239,0400;0,0782887
1240,0043;0,0782603
1240,9685;0,0782053
1241,9327;0,078117
1242,8970;0,0779876
1243,8612;0,0778116
1244,8254;0,0775858
1245,7897;0,0773101
1246,7539;0,0769873
1247,7181;0,0766236
1248,6824;0,0762294
1249,6466;0,0758172
1250,6108;0,0753994
1251,5751;0,0749853
1252,5393;0,07458
1253,5035;0,074185
1254,4678;0,0737983
1255,4320;0,0734151
1256,3962;0,073027
1257,3605;0,0726228
1258,3247;0,0721909
1259,2889;0,0717241
1260,2532;0,0712225
1261,2174;0,0706932
1262,1816;0,0701457
1263,1459;0,0695859
1264,1101;0,0690127
1265,0743;0,0684193
1266,0386;0,0677977
1267,0028;0,0671443
1267,9670;0,0664627
1268,9313;0,0657633
1269,8955;0,0650601
1270,8597;0,0643655
1271,8240;0,0636868
1272,7882;0,0630252
1273,7524;0,0623783
1274,7167;0,0617445
1275,6809;0,0611259
1276,6451;0,0605277
1277,6094;0,0599547
1278,5736;0,0594069
1279,5378;0,058878
1280,5021;0,0583585
1281,4663;0,0578417
1282,4305;0,0573285
1283,3948;0,0568275
1284,3590;0,0563521
1285,3232;0,0559151
1286,2875;0,0555264
1287,2517;0,0551929
1288,2159;0,0549193
1289,1802;0,0547083
1290,1444;0,0545605
1291,1086;0,0544747
1292,0729;0,0544495
1293,0371;0,0544867
1294,0013;0,0545918
1294,9656;0,0547717
1295,9298;0,0550302
1296,8940;0,0553644
1297,8583;0,0557649
1298,8225;0,0562196
1299,7867;0,0567185
1300,7510;0,0572557
1301,7152;0,0578288
1302,6794;0,0584363
1303,6437;0,0590763
1304,6079;0,0597463
1305,5721;0,060443
1306,5364;0,0611622
1307,5006;0,061898
1308,4648;0,0626432
1309,4291;0,0633896
1310,3933;0,0641283
1311,3575;0,0648476
1312,3218;0,0655291
1313,2860;0,0661471
1314,2502;0,0666697
1315,2145;0,0670641
1316,1787;0,0673035
1317,1429;0,067374
1318,1072;0,067281
1319,0714;0,0670526
1320,0356;0,0667335
1320,9999;0,0663731
1321,9641;0,0660123
1322,9283;0,0656781
1323,8926;0,0653854
1324,8568;0,0651415
1325,8210;0,0649483
1326,7853;0,064802
1327,7495;0,0646927
1328,7137;0,0646061
1329,6780;0,0645253
1330,6422;0,064434
1331,6064;0,0643186
1332,5707;0,0641689
1333,5349;0,0639765
1334,4991;0,0637308
1335,4634;0,0634161
1336,4276;0,0630143
1337,3918;0,0625159
1338,3561;0,0619378
1339,3203;0,0613319
1340,2845;0,0607671
1341,2488;0,0602929
1342,2130;0,059919
1343,1772;0,0596264
1344,1415;0,0593905
1345,1057;0,0591978
1346,0699;0,0590498
1347,0342;0,0589586
1347,9984;0,0589379
1348,9626;0,0589952
1349,9269;0,0591281
1350,8911;0,0593257
1351,8553;0,0595742
1352,8196;0,0598641
1353,7838;0,0601947
1354,7480;0,0605726
1355,7123;0,0610027
1356,6765;0,0614791
1357,6407;0,0619819
1358,6050;0,0624851
1359,5692;0,0629666
