TITLE;
DATA TYPE;INFRARED SPECTRUM
ORIGIN;JASCO
OWNER;
DATE;25/03/18
TIME;12:04:48
SPECTROMETER/DATA SYSTEM;
LOCALE;9226
RESOLUTION;
DELTAX;0,964233
XUNITS;1/CM
YUNITS;ABSORBANCE
FIRSTX;  399,1927
LASTX; 4000,6047
NPOINTS;    3736
FIRSTY;     0,18188
MAXY;     0,21904
MINY;     0,00633
XYDATA
399,1927;0,181885
400,1569;0,179641
401,1211;0,178224
402,0854;0,177746
403,0496;0,177912
404,0138;0,17834
404,9781;0,178739
405,9423;0,178967
406,9065;0,179013
407,8708;0,17892
408,8350;0,178717
409,7992;0,178418
410,7635;0,178075
411,7277;0,17782
412,6919;0,177826
413,6562;0,178236
414,6204;0,179127
415,5846;0,180537
416,5489;0,182446
417,5131;0,184646
418,4773;0,186564
419,4416;0,18748
420,4058;0,187202
421,3700;0,186246
422,3343;0,185299
423,2985;0,184829
424,2627;0,185028
425,2270;0,18583
426,1912;0,186955
427,1554;0,188056
428,1197;0,188897
429,0839;0,189451
430,0481;0,189849
431,0124;0,190236
431,9766;0,190645
432,9408;0,190953
433,9051;0,190963
434,8693;0,190546
435,8335;0,189758
436,7978;0,188824
437,7620;0,188011
438,7262;0,187494
439,6905;0,187292
440,6547;0,18731
441,6189;0,187407
442,5832;0,187467
443,5474;0,187435
444,5116;0,187331
445,4759;0,187211
446,4401;0,187122
447,4043;0,187072
448,3686;0,187042
449,3328;0,187004
450,2970;0,186943
451,2613;0,186864
452,2255;0,186774
453,1897;0,186661
454,1540;0,186482
455,1182;0,186178
456,0824;0,185716
457,0467;0,185139
458,0109;0,184584
458,9751;0,184214
459,9394;0,1841
460,9036;0,184183
461,8678;0,184321
462,8321;0,184366
463,7963;0,184214
464,7605;0,183822
465,7248;0,183212
466,6890;0,182453
467,6532;0,181626
468,6175;0,18081
469,5817;0,180104
470,5459;0,179648
471,5102;0,179611
472,4744;0,1801
473,4386;0,181052
474,4029;0,182212
475,3671;0,183258
476,3313;0,183936
477,2956;0,184146
478,2598;0,183948
479,2240;0,18352
480,1883;0,183079
481,1525;0,182799
482,1167;0,182765
483,0810;0,182967
484,0452;0,183342
485,0094;0,183812
485,9737;0,184322
486,9379;0,184846
487,9021;0,185373
488,8664;0,185884
489,8306;0,186338
490,7948;0,186667
491,7591;0,186805
492,7233;0,186722
493,6875;0,186458
494,6518;0,186126
495,6160;0,18587
496,5802;0,185808
497,5445;0,185993
498,5087;0,186389
499,4729;0,186878
500,4372;0,187303
501,4014;0,187526
502,3656;0,187501
503,3299;0,187307
504,2941;0,187116
505,2583;0,187108
506,2226;0,187399
507,1868;0,187989
508,1510;0,188773
509,1153;0,18958
510,0795;0,190256
511,0437;0,190722
512,0080;0,190996
512,9722;0,191164
513,9365;0,191335
514,9007;0,191599
515,8649;0,191992
516,8292;0,19248
517,7934;0,192959
518,7576;0,193298
519,7219;0,193397
520,6861;0,193235
521,6503;0,192868
522,6146;0,192406
523,5788;0,191972
524,5430;0,191672
525,5073;0,191555
526,4715;0,191576
527,4357;0,191618
528,4000;0,191551
529,3642;0,1913
530,3284;0,190865
531,2927;0,190304
532,2569;0,189693
533,2211;0,189098
534,1854;0,188567
535,1496;0,188141
536,1138;0,187862
537,0781;0,187775
538,0423;0,187887
539,0065;0,188149
539,9708;0,188458
540,9350;0,188709
541,8992;0,188851
542,8635;0,188917
543,8277;0,188999
544,7919;0,189192
545,7562;0,189533
546,7204;0,189983
547,6846;0,190461
548,6489;0,190894
549,6131;0,191259
550,5773;0,191582
551,5416;0,19192
552,5058;0,192334
553,4700;0,192869
554,4343;0,193523
555,3985;0,194227
556,3627;0,194831
557,3270;0,19513
558,2912;0,194939
559,2554;0,194167
560,2197;0,192863
561,1839;0,1912
562,1481;0,189406
563,1124;0,187687
564,0766;0,186169
565,0408;0,184894
566,0051;0,183845
566,9693;0,18298
567,9335;0,182254
568,8978;0,181632
569,8620;0,181086
570,8262;0,180608
571,7905;0,180199
572,7547;0,179863
573,7189;0,179597
574,6832;0,179374
575,6474;0,17915
576,6116;0,178881
577,5759;0,178547
578,5401;0,17816
579,5043;0,177762
580,4686;0,1774
581,4328;0,177111
582,3970;0,176911
583,3613;0,176798
584,3255;0,176753
585,2897;0,176757
586,2540;0,176785
587,2182;0,176813
588,1824;0,176822
589,1467;0,176795
590,1109;0,176729
591,0751;0,176628
592,0394;0,176499
593,0036;0,176337
593,9678;0,176125
594,9321;0,175839
595,8963;0,175465
596,8605;0,175011
597,8248;0,174514
598,7890;0,17402
599,7532;0,173562
600,7175;0,173146
601,6817;0,172743
602,6459;0,172315
603,6102;0,171835
604,5744;0,171307
605,5386;0,170754
606,5029;0,170201
607,4671;0,169657
608,4313;0,169112
609,3956;0,168551
610,3598;0,167976
611,3240;0,167408
612,2883;0,166883
613,2525;0,166416
614,2167;0,165976
615,1810;0,165478
616,1452;0,164805
617,1094;0,163856
618,0737;0,16261
619,0379;0,161141
620,0021;0,159586
620,9664;0,158082
621,9306;0,156724
622,8948;0,155549
623,8591;0,154556
624,8233;0,153708
625,7875;0,15299
626,7518;0,152367
627,7160;0,151806
628,6802;0,151263
629,6445;0,150694
630,6087;0,150058
631,5729;0,149333
632,5372;0,148541
633,5014;0,147739
634,4656;0,147009
635,4299;0,146416
636,3941;0,145981
637,3583;0,145667
638,3226;0,145398
639,2868;0,145098
640,2510;0,144725
641,2153;0,144283
642,1795;0,14381
643,1437;0,14335
644,1080;0,142934
645,0722;0,142572
646,0364;0,142254
647,0007;0,141966
647,9649;0,141703
648,9291;0,141471
649,8934;0,14129
650,8576;0,141183
651,8218;0,141174
652,7861;0,141275
653,7503;0,141479
654,7145;0,141761
655,6788;0,142082
656,6430;0,142402
657,6072;0,142685
658,5715;0,142896
659,5357;0,142989
660,4999;0,142918
661,4642;0,142673
662,4284;0,142297
663,3926;0,141868
664,3569;0,141477
665,3211;0,141217
666,2853;0,141149
667,2496;0,141149
668,2138;0,140769
669,1780;0,139646
670,1423;0,138055
671,1065;0,136438
672,0707;0,134899
673,0350;0,133335
673,9992;0,131656
674,9634;0,129862
675,9277;0,128034
676,8919;0,126277
677,8561;0,124655
678,8204;0,123179
679,7846;0,121836
680,7488;0,120627
681,7131;0,119575
682,6773;0,11869
683,6415;0,117957
684,6058;0,117332
685,5700;0,116765
686,5342;0,116214
687,4985;0,115658
688,4627;0,115098
689,4269;0,114549
690,3912;0,114032
691,3554;0,11356
692,3196;0,113131
693,2839;0,11273
694,2481;0,112334
695,2123;0,111931
696,1766;0,111522
697,1408;0,111113
698,1050;0,110702
699,0693;0,110279
700,0335;0,109823
700,9977;0,10932
701,9620;0,108769
702,9262;0,108188
703,8904;0,107595
704,8547;0,107007
705,8189;0,106427
706,7831;0,105847
707,7474;0,105261
708,7116;0,104669
709,6758;0,10407
710,6401;0,103455
711,6043;0,102804
712,5685;0,102098
713,5328;0,101342
714,4970;0,100574
715,4612;0,0996679
716,4255;0,0990711
717,3897;0,0985654
718,3539;0,0980654
719,3182;0,0974455
720,2824;0,0966091
721,2466;0,0955516
722,2109;0,094366
723,1751;0,0931864
724,1393;0,0921165
725,1036;0,0911919
726,0678;0,0903855
727,0320;0,0896395
727,9963;0,0889008
728,9605;0,0881423
729,9247;0,0873654
730,8890;0,086589
731,8532;0,0858375
732,8174;0,085133
733,7817;0,0844903
734,7459;0,0839148
735,7101;0,0834011
736,6744;0,0829356
737,6386;0,082502
738,6028;0,0820865
739,5671;0,0816811
740,5313;0,0812808
741,4955;0,0808806
742,4598;0,0804742
743,4240;0,0800558
744,3882;0,0796248
745,3525;0,0791869
746,3167;0,0787523
747,2809;0,0783294
748,2452;0,0779212
749,2094;0,0775237
750,1736;0,0771292
751,1379;0,0767301
752,1021;0,0763226
753,0663;0,0759069
754,0306;0,0754871
754,9948;0,0750696
755,9590;0,0746604
756,9233;0,0742627
757,8875;0,0738737
758,8517;0,0734856
759,8160;0,0730911
760,7802;0,0726907
761,7444;0,0722973
762,7087;0,0719318
763,6729;0,0716106
764,6371;0,0713338
765,6014;0,0710813
766,5656;0,0708235
767,5298;0,0705372
768,4941;0,0702191
769,4583;0,0698849
770,4225;0,0695574
771,3868;0,0692516
772,3510;0,0689683
773,3152;0,0686988
774,2795;0,0684354
775,2437;0,0681785
776,2079;0,0679347
777,1722;0,0677087
778,1364;0,0674962
779,1006;0,0672829
780,0649;0,0670506
781,0291;0,0667836
781,9933;0,066473
782,9576;0,0661163
783,9218;0,0657163
784,8860;0,065282
785,8503;0,0648298
786,8145;0,0643839
787,7787;0,063972
788,7430;0,0636169
789,7072;0,0633279
790,6714;0,0630967
791,6357;0,0629024
792,5999;0,0627204
793,5641;0,0625341
794,5284;0,06234
795,4926;0,0621455
796,4568;0,0619603
797,4211;0,0617887
798,3853;0,0616262
799,3495;0,0614639
800,3138;0,0612959
801,2780;0,0611246
802,2422;0,0609587
803,2065;0,0608058
804,1707;0,060666
805,1349;0,0605313
806,0992;0,0603933
807,0634;0,0602506
808,0276;0,060112
808,9919;0,0599891
809,9561;0,0598854
810,9203;0,0597911
811,8846;0,0596877
812,8488;0,0595616
813,8130;0,059416
814,7773;0,0592711
815,7415;0,0591535
816,7057;0,05908
817,6700;0,0590491
818,6342;0,059043
819,5984;0,0590391
820,5627;0,0590207
821,5269;0,0589808
822,4911;0,0589194
823,4554;0,0588375
824,4196;0,0587349
825,3839;0,0586109
826,3481;0,0584673
827,3123;0,0583102
828,2766;0,0581489
829,2408;0,0579941
830,2050;0,0578545
831,1693;0,0577329
832,1335;0,0576235
833,0977;0,0575099
834,0620;0,0573692
835,0262;0,0571806
835,9904;0,056936
836,9547;0,0566458
837,9189;0,0563363
838,8831;0,0560386
839,8474;0,0557773
840,8116;0,0555628
841,7758;0,0553934
842,7401;0,0552599
843,7043;0,0551505
844,6685;0,0550511
845,6328;0,0549446
846,5970;0,054813
847,5612;0,0546435
848,5255;0,0544363
849,4897;0,0542071
850,4539;0,0539814
851,4182;0,0537834
852,3824;0,0536265
853,3466;0,053511
854,3109;0,0534289
855,2751;0,0533707
856,2393;0,0533292
857,2036;0,0532992
858,1678;0,0532765
859,1320;0,0532589
860,0963;0,0532494
861,0605;0,0532581
862,0247;0,0532985
862,9890;0,0533805
863,9532;0,0535042
864,9174;0,0536611
865,8817;0,0538414
866,8459;0,0540424
867,8101;0,0542712
868,7744;0,0545385
869,7386;0,0548481
870,7028;0,055189
871,6671;0,0555367
872,6313;0,0558631
873,5955;0,0561487
874,5598;0,0563906
875,5240;0,056602
876,4882;0,0568053
877,4525;0,0570237
878,4167;0,0572761
879,3809;0,057576
880,3452;0,0579329
881,3094;0,0583541
882,2736;0,0588449
883,2379;0,0594074
884,2021;0,0600405
885,1663;0,0607411
886,1306;0,0615052
887,0948;0,06233
888,0590;0,0632108
889,0233;0,0641374
889,9875;0,0650888
890,9517;0,0660316
891,9160;0,0669236
892,8802;0,0677211
893,8444;0,068388
894,8087;0,0689018
895,7729;0,069254
896,7371;0,0694461
897,7014;0,0694823
898,6656;0,0693651
899,6298;0,0690949
900,5941;0,068676
901,5583;0,0681248
902,5225;0,0674762
903,4868;0,066782
904,4510;0,0661008
905,4152;0,0654818
906,3795;0,0649516
907,3437;0,0645091
908,3079;0,0641341
909,2722;0,0638028
910,2364;0,0635025
911,2007;0,0632386
912,1649;0,0630299
913,1292;0,0628979
914,0934;0,0628567
915,0576;0,0629081
916,0219;0,0630428
916,9861;0,063245
917,9503;0,0634955
918,9146;0,0637756
919,8788;0,0640695
920,8430;0,0643678
921,8073;0,0646683
922,7715;0,0649755
923,7357;0,065294
924,7000;0,0656231
925,6642;0,0659531
926,6284;0,0662687
927,5927;0,0665568
928,5569;0,0668145
929,5211;0,0670527
930,4854;0,0672921
931,4496;0,0675542
932,4138;0,067853
933,3781;0,0681916
934,3423;0,0685646
935,3065;0,0689658
936,2708;0,0693963
937,2350;0,0698689
938,1992;0,0704057
939,1635;0,0710308
940,1277;0,0717597
941,0919;0,0725924
942,0562;0,0735138
943,0204;0,0745019
943,9846;0,0755406
944,9489;0,076629
945,9131;0,0777815
946,8773;0,0790172
947,8416;0,0803462
948,8058;0,08176
949,7700;0,0832339
950,7343;0,0847391
951,6985;0,0862576
952,6627;0,08779
953,6270;0,0893529
954,5912;0,0909672
955,5554;0,0926458
956,5197;0,0943877
957,4839;0,0961808
958,4481;0,0980085
959,4124;0,0998567
960,3766;0,101716
961,3408;0,103582
962,3051;0,10545
963,2693;0,107319
964,2335;0,109187
965,1978;0,111055
966,1620;0,112925
967,1262;0,114807
968,0905;0,116715
969,0547;0,118671
970,0189;0,120709
970,9832;0,122864
971,9474;0,125171
972,9116;0,127657
973,8759;0,130337
974,8401;0,133217
975,8043;0,136295
976,7686;0,139559
977,7328;0,142981
978,6970;0,146503
979,6613;0,150037
980,6255;0,153471
981,5897;0,15669
982,5540;0,159605
983,5182;0,162174
984,4824;0,164401
985,4467;0,166327
986,4109;0,168005
987,3751;0,169493
988,3394;0,170836
989,3036;0,17207
990,2678;0,173215
991,2321;0,174278
992,1963;0,175253
993,1605;0,17613
994,1248;0,176905
995,0890;0,177591
996,0532;0,178208
997,0175;0,178779
997,9817;0,179317
998,9459;0,179826
999,9102;0,180317
1000,8744;0,18082
1001,8386;0,181387
1002,8029;0,182077
1003,7671;0,18294
1004,7313;0,183997
1005,6956;0,185241
1006,6598;0,186648
1007,6240;0,188201
1008,5883;0,189896
1009,5525;0,191736
1010,5167;0,193718
1011,4810;0,195816
1012,4452;0,197981
1013,4094;0,200144
1014,3737;0,202235
1015,3379;0,204202
1016,3021;0,206016
1017,2664;0,207669
1018,2306;0,209169
1019,1948;0,210531
1020,1591;0,211767
1021,1233;0,212888
1022,0875;0,213907
1023,0518;0,21484
1024,0160;0,215701
1024,9802;0,216501
1025,9445;0,217241
1026,9087;0,217904
1027,8729;0,21846
1028,8372;0,218859
1029,8014;0,219037
1030,7656;0,218918
1031,7299;0,218425
1032,6941;0,217499
1033,6583;0,216116
1034,6226;0,214309
1035,5868;0,212171
1036,5510;0,209849
1037,5153;0,207522
1038,4795;0,205366
1039,4437;0,203526
1040,4080;0,202092
1041,3722;0,201093
1042,3364;0,200494
1043,3007;0,200215
1044,2649;0,200149
1045,2291;0,200186
1046,1934;0,200229
1047,1576;0,200208
1048,1218;0,200072
1049,0861;0,199782
1050,0503;0,199301
1051,0145;0,19859
1051,9788;0,197624
1052,9430;0,1964
1053,9072;0,194942
1054,8715;0,193287
1055,8357;0,191453
1056,7999;0,18942
1057,7642;0,187125
1058,7284;0,184494
1059,6926;0,18149
1060,6569;0,178149
1061,6211;0,174586
1062,5853;0,170967
1063,5496;0,167451
1064,5138;0,16415
1065,4780;0,161107
1066,4423;0,158312
1067,4065;0,155731
1068,3707;0,153329
1069,3350;0,151083
1070,2992;0,148974
1071,2634;0,146968
1072,2277;0,14502
1073,1919;0,143067
1074,1561;0,141055
1075,1204;0,13895
1076,0846;0,136756
1077,0488;0,134506
1078,0131;0,132262
1078,9773;0,130094
1079,9415;0,128068
1080,9058;0,126234
1081,8700;0,124623
1082,8342;0,123245
1083,7985;0,122091
1084,7627;0,121136
1085,7269;0,120349
1086,6912;0,119698
1087,6554;0,119163
1088,6196;0,118735
1089,5839;0,118417
1090,5481;0,11821
1091,5123;0,11811
1092,4766;0,118102
1093,4408;0,118163
1094,4050;0,118271
1095,3693;0,118413
1096,3335;0,118584
1097,2977;0,118782
1098,2620;0,119002
1099,2262;0,119228
1100,1904;0,119435
1101,1547;0,119593
1102,1189;0,119674
1103,0831;0,119656
1104,0474;0,119532
1105,0116;0,119306
1105,9758;0,118994
1106,9401;0,118614
1107,9043;0,118176
1108,8685;0,117664
1109,8328;0,117032
1110,7970;0,116213
1111,7612;0,115145
1112,7255;0,113802
1113,6897;0,112217
1114,6539;0,110477
1115,6182;0,108703
1116,5824;0,107008
1117,5466;0,105464
1118,5109;0,104084
1119,4751;0,10283
1120,4393;0,10163
1121,4036;0,100403
1122,3678;0,0990759
1123,3320;0,0975983
1124,2963;0,0959427
1125,2605;0,0941071
1126,2247;0,0921126
1127,1890;0,0899991
1128,1532;0,0878166
1129,1174;0,0856149
1130,0817;0,0834345
1131,0459;0,0813032
1132,0101;0,07924
1132,9744;0,0772627
1133,9386;0,0753957
1134,9028;0,073673
1135,8671;0,0721355
1136,8313;0,0708246
1137,7955;0,0697743
1138,7598;0,0690052
1139,7240;0,068522
1140,6882;0,0683126
1141,6525;0,0683498
1142,6167;0,0685946
1143,5809;0,0690019
1144,5452;0,0695273
1145,5094;0,0701329
1146,4736;0,0707927
1147,4379;0,0714937
1148,4021;0,072233
1149,3663;0,0730117
1150,3306;0,0738269
1151,2948;0,0746648
1152,2590;0,0754987
1153,2233;0,076291
1154,1875;0,0769993
1155,1517;0,0775822
1156,1160;0,0780005
1157,0802;0,0782135
1158,0444;0,0781737
1159,0087;0,0778236
1159,9729;0,0771004
1160,9371;0,0759485
1161,9014;0,0743358
1162,8656;0,0722684
1163,8298;0,0697963
1164,7941;0,0670085
1165,7583;0,0640201
1166,7225;0,0609558
1167,6868;0,0579331
1168,6510;0,0550495
1169,6152;0,0523743
1170,5795;0,0499471
1171,5437;0,0477806
1172,5079;0,045869
1173,4722;0,0441965
1174,4364;0,0427443
1175,4006;0,0414938
1176,3649;0,0404255
1177,3291;0,0395182
1178,2933;0,0387479
1179,2576;0,0380903
1180,2218;0,0375245
1181,1860;0,0370365
1182,1503;0,0366212
1183,1145;0,03628
1184,0787;0,0360175
1185,0430;0,0358373
1186,0072;0,0357406
1186,9714;0,0357268
1187,9357;0,035796
1188,8999;0,0359511
1189,8641;0,0361972
1190,8284;0,0365381
1191,7926;0,0369722
1192,7568;0,0374887
1193,7211;0,0380689
1194,6853;0,0386901
1195,6495;0,0393315
1196,6138;0,0399783
1197,5780;0,0406218
1198,5422;0,0412576
1199,5065;0,0418281
1200,4707;0,0424432
1201,4349;0,0430368
1202,3992;0,0436008
1203,3634;0,0441259
1204,3276;0,0446009
1205,2919;0,0450148
1206,2561;0,0453617
1207,2203;0,0456468
1208,1846;0,0458922
1209,1488;0,046136
1210,1130;0,0464251
1211,0773;0,0468025
1212,0415;0,0472941
1213,0057;0,0479023
1213,9700;0,0486083
1214,9342;0,0493816
1215,8984;0,0501917
1216,8627;0,0510152
1217,8269;0,0518384
1218,7911;0,0526546
1219,7554;0,0534599
1220,7196;0,0542503
1221,6838;0,05502
1222,6481;0,0557628
1223,6123;0,0564722
1224,5765;0,0571424
1225,5408;0,0577688
1226,5050;0,0583484
1227,4692;0,0588802
1228,4335;0,0593658
1229,3977;0,0598087
1230,3619;0,0602122
1231,3262;0,0605767
1232,2904;0,060898
1233,2546;0,0611673
1234,2189;0,0613755
1235,1831;0,0615178
1236,1473;0,0615983
1237,1116;0,0616294
1238,0758;0,0616274
1239,0400;0,0616054
1240,0043;0,0615677
1240,9685;0,0615094
1241,9327;0,06142
1242,8970;0,0612898
1243,8612;0,0611136
1244,8254;0,0608919
1245,7897;0,0606288
1246,7539;0,0603298
1247,7181;0,0599998
1248,6824;0,0596442
1249,6466;0,0592693
1250,6108;0,0588828
1251,5751;0,0584938
1252,5393;0,0581121
1253,5035;0,0577461
1254,4678;0,0574
1255,4320;0,0570723
1256,3962;0,0567543
1257,3605;0,0564324
1258,3247;0,0560924
1259,2889;0,0557245
1260,2532;0,0553256
1261,2174;0,054899
1262,1816;0,0544502
1263,1459;0,0539832
1264,1101;0,0534986
1265,0743;0,0529947
1266,0386;0,0524699
1267,0028;0,0519247
1267,9670;0,0513623
1268,9313;0,050788
1269,8955;0,0502072
1270,8597;0,0496235
1271,8240;0,0490375
1272,7882;0,0484485
1273,7524;0,0478578
1274,7167;0,0472714
1275,6809;0,0467002
1276,6451;0,0461563
1277,6094;0,0456456
1278,5736;0,0451633
1279,5378;0,044694
1280,5021;0,0442196
1281,4663;0,043729
1282,4305;0,0432244
1283,3948;0,0427211
1284,3590;0,0422413
1285,3232;0,0418074
1286,2875;0,041437
1287,2517;0,0411406
1288,2159;0,0409208
1289,1802;0,0407724
1290,1444;0,0406853
1291,1086;0,0406486
1292,0729;0,0406576
1293,0371;0,0407168
1294,0013;0,0408384
1294,9656;0,0410353
1295,9298;0,0413132
1296,8940;0,0416671
1297,8583;0,0420847
1298,8225;0,0425535
1299,7867;0,0430663
1300,7510;0,0436215
1301,7152;0,0442204
1302,6794;0,0448627
1303,6437;0,0455459
1304,6079;0,0462673
1305,5721;0,0470248
1306,5364;0,0478156
1307,5006;0,0486341
1308,4648;0,0494695
1309,4291;0,0503068
1310,3933;0,0511277
1311,3575;0,0519117
1312,3218;0,052636
1313,2860;0,0532762
1314,2502;0,053807
1315,2145;0,054203
1316,1787;0,0544416
1317,1429;0,054508
1318,1072;0,0544046
1319,0714;0,0541574
1320,0356;0,0538145
1320,9999;0,0534313
1321,9641;0,0530539
1322,9283;0,0527095
1323,8926;0,0524094
1324,8568;0,0521565
1325,8210;0,0519516
1326,7853;0,0517948
1327,7495;0,0516828
1328,7137;0,0516055
1329,6780;0,0515448
1330,6422;0,0514773
1331,6064;0,0513807
1332,5707;0,0512383
1333,5349;0,0510415
1334,4991;0,0507845
1335,4634;0,0504573
1336,4276;0,0500425
1337,3918;0,0495222
1338,3561;0,0488973
1339,3203;0,0482062
1340,2845;0,0475189
1341,2488;0,0469012
1342,2130;0,0463833
1343,1772;0,0459594
1344,1415;0,0456099
1345,1057;0,0453216
1346,0699;0,0450954
1347,0342;0,0449419
1347,9984;0,044874
1348,9626;0,0448976
1349,9269;0,0450087
1350,8911;0,0451935
1351,8553;0,0454336
1352,8196;0,0457121
1353,7838;0,0460205
1354,7480;0,0463607
1355,7123;0,0467405
1356,6765;0,0471648
1357,6407;0,0476274
1358,6050;0,048111
