TITLE;
DATA TYPE;INFRARED SPECTRUM
ORIGIN;JASCO
OWNER;
DATE;25/03/18
TIME;13:31:39
SPECTROMETER/DATA SYSTEM;
LOCALE;9226
RESOLUTION;
DELTAX;0,964233
XUNITS;1/CM
YUNITS;ABSORBANCE
FIRSTX;  399,1927
LASTX; 4000,6047
NPOINTS;    3736
FIRSTY;     0,16960
MAXY;     0,21596
MINY;     0,01342
XYDATA
399,1927;0,169604
400,1569;0,169111
401,1211;0,169027
402,0854;0,16933
403,0496;0,169706
404,0138;0,169753
404,9781;0,169187
405,9423;0,168015
406,9065;0,166603
407,8708;0,165514
408,8350;0,165224
409,7992;0,165886
410,7635;0,167267
411,7277;0,168858
412,6919;0,170144
413,6562;0,170858
414,6204;0,171065
415,5846;0,171082
416,5489;0,17136
417,5131;0,172303
418,4773;0,173922
419,4416;0,175602
420,4058;0,176602
421,3700;0,176778
422,3343;0,176536
423,2985;0,176381
424,2627;0,176645
425,2270;0,177373
426,1912;0,178337
427,1554;0,179181
428,1197;0,179636
429,0839;0,179661
430,0481;0,179439
431,0124;0,179256
431,9766;0,179347
432,9408;0,179789
433,9051;0,180468
434,8693;0,181152
435,8335;0,181609
436,7978;0,181716
437,7620;0,181492
438,7262;0,181043
439,6905;0,180476
440,6547;0,179845
441,6189;0,179162
442,5832;0,178464
443,5474;0,177861
444,5116;0,177521
445,4759;0,177558
446,4401;0,177915
447,4043;0,178348
448,3686;0,178522
449,3328;0,178176
450,2970;0,177281
451,2613;0,176099
452,2255;0,175058
453,1897;0,174529
454,1540;0,174635
455,1182;0,17521
456,0824;0,175885
457,0467;0,176277
458,0109;0,176194
458,9751;0,175744
459,9394;0,175194
460,9036;0,174738
461,8678;0,174389
462,8321;0,174049
463,7963;0,173628
464,7605;0,173131
465,7248;0,172669
466,6890;0,172381
467,6532;0,172328
468,6175;0,172446
469,5817;0,172582
470,5459;0,172592
471,5102;0,172439
472,4744;0,17223
473,4386;0,172145
474,4029;0,172288
475,3671;0,172622
476,3313;0,173009
477,2956;0,173321
478,2598;0,173517
479,2240;0,173657
480,1883;0,173854
481,1525;0,174192
482,1167;0,174668
483,0810;0,175189
484,0452;0,175633
485,0094;0,175941
485,9737;0,176152
486,9379;0,176377
487,9021;0,17671
488,8664;0,177171
489,8306;0,177688
490,7948;0,178134
491,7591;0,178391
492,7233;0,178409
493,6875;0,178229
494,6518;0,177958
495,6160;0,177711
496,5802;0,177578
497,5445;0,177603
498,5087;0,177794
499,4729;0,178129
500,4372;0,178562
501,4014;0,179027
502,3656;0,179457
503,3299;0,179799
504,2941;0,180034
505,2583;0,180177
506,2226;0,180275
507,1868;0,180401
508,1510;0,180634
509,1153;0,181031
510,0795;0,181598
511,0437;0,182278
512,0080;0,182979
512,9722;0,18362
513,9365;0,184161
514,9007;0,184617
515,8649;0,185025
516,8292;0,185416
517,7934;0,185782
518,7576;0,186081
519,7219;0,186268
520,6861;0,186315
521,6503;0,186209
522,6146;0,185937
523,5788;0,185496
524,5430;0,184923
525,5073;0,184326
526,4715;0,183866
527,4357;0,183672
528,4000;0,18376
529,3642;0,184018
530,3284;0,184259
531,2927;0,184308
532,2569;0,184066
533,2211;0,183547
534,1854;0,182869
535,1496;0,182196
536,1138;0,181681
537,0781;0,181408
538,0423;0,181387
539,0065;0,181562
539,9708;0,181849
540,9350;0,182166
541,8992;0,182456
542,8635;0,182695
543,8277;0,182883
544,7919;0,183034
545,7562;0,183174
546,7204;0,183345
547,6846;0,183607
548,6489;0,184022
549,6131;0,184629
550,5773;0,185421
551,5416;0,18634
552,5058;0,18729
553,4700;0,188167
554,4343;0,188881
555,3985;0,189369
556,3627;0,189585
557,3270;0,189497
558,2912;0,189082
559,2554;0,188334
560,2197;0,187278
561,1839;0,185974
562,1481;0,184519
563,1124;0,183027
564,0766;0,181601
565,0408;0,180316
566,0051;0,179209
566,9693;0,178286
567,9335;0,177531
568,8978;0,176925
569,8620;0,176452
570,8262;0,1761
571,7905;0,17585
572,7547;0,175669
573,7189;0,175512
574,6832;0,175328
575,6474;0,175079
576,6116;0,174762
577,5759;0,174407
578,5401;0,174064
579,5043;0,173779
580,4686;0,173579
581,4328;0,173465
582,3970;0,173422
583,3613;0,173426
584,3255;0,173457
585,2897;0,173495
586,2540;0,173523
587,2182;0,173525
588,1824;0,173492
589,1467;0,173422
590,1109;0,173331
591,0751;0,173236
592,0394;0,173148
593,0036;0,17306
593,9678;0,172938
594,9321;0,172741
595,8963;0,172435
596,8605;0,172013
597,8248;0,171499
598,7890;0,170939
599,7532;0,17038
600,7175;0,169853
601,6817;0,169372
602,6459;0,168939
603,6102;0,168562
604,5744;0,168249
605,5386;0,167997
606,5029;0,167769
607,4671;0,167501
608,4313;0,167122
609,3956;0,166587
610,3598;0,16591
611,3240;0,165154
612,2883;0,164404
613,2525;0,16372
614,2167;0,163111
615,1810;0,162526
616,1452;0,161878
617,1094;0,161079
618,0737;0,160083
619,0379;0,158908
620,0021;0,157619
620,9664;0,156301
621,9306;0,155026
622,8948;0,153847
623,8591;0,152791
624,8233;0,151865
625,7875;0,151047
626,7518;0,150303
627,7160;0,149595
628,6802;0,148887
629,6445;0,148162
630,6087;0,147418
631,5729;0,146674
632,5372;0,145954
633,5014;0,145285
634,4656;0,144682
635,4299;0,144139
636,3941;0,143632
637,3583;0,143128
638,3226;0,142602
639,2868;0,142051
640,2510;0,141495
641,2153;0,140966
642,1795;0,140494
643,1437;0,14009
644,1080;0,139745
645,0722;0,139442
646,0364;0,139162
647,0007;0,138895
647,9649;0,138639
648,9291;0,138399
649,8934;0,138181
650,8576;0,137997
651,8218;0,137861
652,7861;0,137791
653,7503;0,137802
654,7145;0,137908
655,6788;0,138117
656,6430;0,138424
657,6072;0,138805
658,5715;0,139205
659,5357;0,139533
660,4999;0,139698
661,4642;0,139661
662,4284;0,139472
663,3926;0,139242
664,3569;0,139081
665,3211;0,139036
666,2853;0,139036
667,2496;0,138827
668,2138;0,138042
669,1780;0,13659
670,1423;0,134826
671,1065;0,133094
672,0707;0,131472
673,0350;0,129895
673,9992;0,128305
674,9634;0,126702
675,9277;0,125137
676,8919;0,123661
677,8561;0,122281
678,8204;0,120972
679,7846;0,119722
680,7488;0,118562
681,7131;0,117546
682,6773;0,116702
683,6415;0,116009
684,6058;0,115408
685,5700;0,114844
686,5342;0,11429
687,4985;0,113757
688,4627;0,113277
689,4269;0,112878
690,3912;0,112563
691,3554;0,112309
692,3196;0,112072
693,2839;0,111809
694,2481;0,11149
695,2123;0,111111
696,1766;0,110684
697,1408;0,11023
698,1050;0,109767
699,0693;0,109303
700,0335;0,108845
700,9977;0,108397
701,9620;0,107964
702,9262;0,107543
703,8904;0,107128
704,8547;0,106706
705,8189;0,106262
706,7831;0,105793
707,7474;0,105298
708,7116;0,104778
709,6758;0,104223
710,6401;0,103616
711,6043;0,10294
712,5685;0,102194
713,5328;0,101403
714,4970;0,10062
715,4612;0,0999354
716,4255;0,0993069
717,3897;0,098758
718,3539;0,0982291
719,3182;0,0976368
720,2824;0,0969139
721,2466;0,0960435
722,2109;0,0950644
723,1751;0,0940425
724,1393;0,0930357
725,1036;0,0920751
726,0678;0,0911667
727,0320;0,0903028
727,9963;0,0894741
728,9605;0,0886746
729,9247;0,0879027
730,8890;0,0871594
731,8532;0,0864484
732,8174;0,0857755
733,7817;0,0851473
734,7459;0,0845685
735,7101;0,0840403
736,6744;0,0835591
737,6386;0,0831163
738,6028;0,0826981
739,5671;0,0822858
740,5313;0,0818593
741,4955;0,0814037
742,4598;0,0809177
743,4240;0,0804166
744,3882;0,0799277
745,3525;0,079477
746,3167;0,0790756
747,2809;0,0787139
748,2452;0,0783681
749,2094;0,0780165
750,1736;0,0776532
751,1379;0,0772901
752,1021;0,076944
753,0663;0,0766176
754,0306;0,076291
754,9948;0,07593
755,9590;0,07551
756,9233;0,0750359
757,8875;0,0745454
758,8517;0,07409
759,8160;0,0737073
760,7802;0,0734031
761,7444;0,0731538
762,7087;0,072924
763,6729;0,0726868
764,6371;0,0724312
765,6014;0,0721577
766,5656;0,0718696
767,5298;0,0715691
768,4941;0,0712615
769,4583;0,0709591
770,4225;0,0706788
771,3868;0,0704325
772,3510;0,0702202
773,3152;0,070029
774,2795;0,0698419
775,2437;0,0696465
776,2079;0,0694384
777,1722;0,0692166
778,1364;0,0689785
779,1006;0,0687198
780,0649;0,0684391
781,0291;0,0681426
781,9933;0,0678425
782,9576;0,0675483
783,9218;0,0672605
784,8860;0,0669705
785,8503;0,0666699
786,8145;0,0663605
787,7787;0,0660582
788,7430;0,0657849
789,7072;0,0655561
790,6714;0,0653713
791,6357;0,0652144
792,5999;0,0650623
793,5641;0,0648963
794,5284;0,0647091
795,4926;0,0645047
796,4568;0,0642936
797,4211;0,0640874
798,3853;0,0638937
799,3495;0,0637145
800,3138;0,0635476
801,2780;0,0633894
802,2422;0,0632388
803,2065;0,0630991
804,1707;0,0629764
805,1349;0,0628744
806,0992;0,062789
807,0634;0,0627078
808,0276;0,062615
808,9919;0,0625012
809,9561;0,0623703
810,9203;0,06224
811,8846;0,0621336
812,8488;0,062068
813,8130;0,0620443
814,7773;0,0620465
815,7415;0,0620499
816,7057;0,0620336
817,6700;0,0619901
818,6342;0,0619275
819,5984;0,0618618
820,5627;0,0618058
821,5269;0,0617609
822,4911;0,0617162
823,4554;0,0616552
824,4196;0,0615661
825,3839;0,0614482
826,3481;0,0613128
827,3123;0,0611771
828,2766;0,0610556
829,2408;0,0609531
830,2050;0,0608621
831,1693;0,0607664
832,1335;0,0606476
833,0977;0,0604939
834,0620;0,0603046
835,0262;0,0600894
835,9904;0,0598628
836,9547;0,0596371
837,9189;0,0594172
838,8831;0,0592017
839,8474;0,058987
840,8116;0,058773
841,7758;0,058565
842,7401;0,058372
843,7043;0,058201
844,6685;0,0580528
845,6328;0,0579198
846,5970;0,0577892
847,5612;0,0576492
848,5255;0,0574963
849,4897;0,0573388
850,4539;0,0571941
851,4182;0,0570798
852,3824;0,0570035
853,3466;0,0569573
854,3109;0,056922
855,2751;0,0568784
856,2393;0,0568187
857,2036;0,0567495
858,1678;0,0566855
859,1320;0,0566378
860,0963;0,0566074
861,0605;0,0565884
862,0247;0,0565775
862,9890;0,0565827
863,9532;0,0566223
864,9174;0,0567155
865,8817;0,05687
866,8459;0,0570768
867,8101;0,0573149
868,7744;0,0575621
869,7386;0,0578053
870,7028;0,058043
871,6671;0,0582811
872,6313;0,0585261
873,5955;0,0587803
874,5598;0,0590416
875,5240;0,0593057
876,4882;0,0595695
877,4525;0,0598335
878,4167;0,0601022
879,3809;0,060384
880,3452;0,0606902
881,3094;0,0610341
882,2736;0,0614292
883,2379;0,0618871
884,2021;0,0624154
885,1663;0,0630168
886,1306;0,0636876
887,0948;0,0644185
888,0590;0,0651953
889,0233;0,066
889,9875;0,0668112
890,9517;0,0676045
891,9160;0,0683521
892,8802;0,0690248
893,8444;0,0695948
894,8087;0,0700391
895,7729;0,0703422
896,7371;0,0704963
897,7014;0,0705006
898,6656;0,0703599
899,6298;0,070086
900,5941;0,0696993
901,5583;0,0692288
902,5225;0,0687091
903,4868;0,0681741
904,4510;0,0676515
905,4152;0,0671599
906,3795;0,0667113
907,3437;0,0663158
908,3079;0,0659843
909,2722;0,0657262
910,2364;0,0655451
911,2007;0,0654353
912,1649;0,0653836
913,1292;0,0653771
914,0934;0,065411
915,0576;0,0654918
916,0219;0,0656323
916,9861;0,0658399
917,9503;0,0661071
918,9146;0,0664104
919,8788;0,0667197
920,8430;0,0670116
921,8073;0,0672801
922,7715;0,0675355
923,7357;0,0677933
924,7000;0,0680613
925,6642;0,0683339
926,6284;0,0685974
927,5927;0,0688422
928,5569;0,0690712
929,5211;0,0692983
930,4854;0,0695381
931,4496;0,069795
932,4138;0,0700621
933,3781;0,0703311
934,3423;0,070606
935,3065;0,0709097
936,2708;0,071277
937,2350;0,0717367
938,1992;0,0722968
939,1635;0,0729408
940,1277;0,0736393
941,0919;0,074369
942,0562;0,0751261
943,0204;0,0759276
943,9846;0,0767993
944,9489;0,0777599
945,9131;0,0788106
946,8773;0,0799348
947,8416;0,0811073
948,8058;0,082307
949,7700;0,0835244
950,7343;0,0847644
951,6985;0,0860404
952,6627;0,087368
953,6270;0,0887576
954,5912;0,0902121
955,5554;0,0917261
956,5197;0,0932885
957,4839;0,0948861
958,4481;0,0965068
959,4124;0,0981428
960,3766;0,0997914
961,3408;0,101454
962,3051;0,103131
963,2693;0,104822
964,2335;0,106523
965,1978;0,10823
966,1620;0,109952
967,1262;0,111711
968,0905;0,113542
969,0547;0,115485
970,0189;0,117569
970,9832;0,119804
971,9474;0,122188
972,9116;0,124711
973,8759;0,127376
974,8401;0,130193
975,8043;0,133181
976,7686;0,136347
977,7328;0,139674
978,6970;0,143111
979,6613;0,146572
980,6255;0,149952
981,5897;0,153136
982,5540;0,156024
983,5182;0,15855
984,4824;0,160693
985,4467;0,162482
986,4109;0,16398
987,3751;0,165268
988,3394;0,166414
989,3036;0,167464
990,2678;0,168441
991,2321;0,16935
992,1963;0,170193
993,1605;0,170975
994,1248;0,171702
995,0890;0,172379
996,0532;0,173004
997,0175;0,173572
997,9817;0,174079
998,9459;0,174532
999,9102;0,174959
1000,8744;0,175412
1001,8386;0,175952
1002,8029;0,176639
1003,7671;0,177513
1004,7313;0,178586
1005,6956;0,179843
1006,6598;0,181254
1007,6240;0,182797
1008,5883;0,184456
1009,5525;0,18623
1010,5167;0,188114
1011,4810;0,190089
1012,4452;0,192118
1013,4094;0,194148
1014,3737;0,196127
1015,3379;0,198008
1016,3021;0,199767
1017,2664;0,201395
1018,2306;0,202902
1019,1948;0,204303
1020,1591;0,205618
1021,1233;0,206865
1022,0875;0,208061
1023,0518;0,209218
1024,0160;0,210345
1024,9802;0,211447
1025,9445;0,212516
1026,9087;0,213533
1027,8729;0,214459
1028,8372;0,215231
1029,8014;0,215763
1030,7656;0,215956
1031,7299;0,215707
1032,6941;0,214936
1033,6583;0,213611
1034,6226;0,211765
1035,5868;0,209504
1036,5510;0,206996
1037,5153;0,204443
1038,4795;0,202048
1039,4437;0,199984
1040,4080;0,198364
1041,3722;0,197237
1042,3364;0,196584
1043,3007;0,196329
1044,2649;0,19636
1045,2291;0,196553
1046,1934;0,196795
1047,1576;0,196997
1048,1218;0,197098
1049,0861;0,197051
1050,0503;0,196819
1051,0145;0,196363
1051,9788;0,195655
1052,9430;0,194679
1053,9072;0,193444
1054,8715;0,191964
1055,8357;0,190245
1056,7999;0,188258
1057,7642;0,185947
1058,7284;0,183253
1059,6926;0,180145
1060,6569;0,17666
1061,6211;0,172903
1062,5853;0,169024
1063,5496;0,165188
1064,5138;0,161529
1065,4780;0,158136
1066,4423;0,155044
1067,4065;0,152245
1068,3707;0,149704
1069,3350;0,147376
1070,2992;0,14521
1071,2634;0,143156
1072,2277;0,141169
1073,1919;0,139203
1074,1561;0,137215
1075,1204;0,135174
1076,0846;0,133069
1077,0488;0,130923
1078,0131;0,128788
1078,9773;0,126738
1079,9415;0,124849
1080,9058;0,123177
1081,8700;0,121748
1082,8342;0,12056
1083,7985;0,119592
1084,7627;0,118818
1085,7269;0,118211
1086,6912;0,117745
1087,6554;0,117396
1088,6196;0,117146
1089,5839;0,116981
1090,5481;0,116897
1091,5123;0,116899
1092,4766;0,116992
1093,4408;0,117175
1094,4050;0,11744
1095,3693;0,117773
1096,3335;0,118158
1097,2977;0,118579
1098,2620;0,119018
1099,2262;0,119456
1100,1904;0,119868
1101,1547;0,120224
1102,1189;0,120496
1103,0831;0,120663
1104,0474;0,120719
1105,0116;0,120676
1105,9758;0,120553
1106,9401;0,120369
1107,9043;0,120125
1108,8685;0,119786
1109,8328;0,119291
1110,7970;0,118562
1111,7612;0,117542
1112,7255;0,116214
1113,6897;0,114621
1114,6539;0,112857
1115,6182;0,111041
1116,5824;0,109286
1117,5466;0,107673
1118,5109;0,106229
1119,4751;0,104931
1120,4393;0,103715
1121,4036;0,102494
1122,3678;0,101178
1123,3320;0,0997003
1124,2963;0,0980258
1125,2605;0,0961584
1126,2247;0,0941341
1127,1890;0,0920074
1128,1532;0,0898345
1129,1174;0,0876609
1130,0817;0,085516
1131,0459;0,0834158
1132,0101;0,0813719
1132,9744;0,0794016
1133,9386;0,0775338
1134,9028;0,0758101
1135,8671;0,0742785
1136,8313;0,0729849
1137,7955;0,0719641
1138,7598;0,0712334
1139,7240;0,0707905
1140,6882;0,0706135
1141,6525;0,0706644
1142,6167;0,0708954
1143,5809;0,0712571
1144,5452;0,0717071
1145,5094;0,0722161
1146,4736;0,0727691
1147,4379;0,0733623
1148,4021;0,0739969
1149,3663;0,0746735
1150,3306;0,0753874
1151,2948;0,0761266
1152,2590;0,0768714
1153,2233;0,0775948
1154,1875;0,0782629
1155,1517;0,0788371
1156,1160;0,079274
1157,0802;0,0795264
1158,0444;0,0795419
1159,0087;0,0792619
1159,9729;0,0786251
1160,9371;0,0775747
1161,9014;0,0760718
1162,8656;0,0741112
1163,8298;0,0717326
1164,7941;0,0690228
1165,7583;0,0661052
1166,7225;0,0631197
1167,6868;0,0601981
1168,6510;0,0574441
1169,6152;0,0549223
1170,5795;0,0526605
1171,5437;0,0506596
1172,5079;0,0489067
1173,4722;0,0473837
1174,4364;0,0460715
1175,4006;0,0449494
1176,3649;0,0439949
1177,3291;0,0431856
1178,2933;0,0425015
1179,2576;0,0419264
1180,2218;0,0414471
1181,1860;0,041051
1182,1503;0,0407252
1183,1145;0,0404587
1184,0787;0,0402459
1185,0430;0,040089
1186,0072;0,039997
1186,9714;0,0399813
1187,9357;0,0400504
1188,8999;0,040207
1189,8641;0,040448
1190,8284;0,040767
1191,7926;0,0411565
1192,7568;0,0416081
1193,7211;0,0421117
1194,6853;0,0426558
1195,6495;0,0432281
1196,6138;0,0438175
1197,5780;0,0444157
1198,5422;0,0450158
1199,5065;0,045589
1200,4707;0,0461732
1201,4349;0,0467325
1202,3992;0,047254
1203,3634;0,0477263
1204,3276;0,048141
1205,2919;0,0484946
1206,2561;0,0487898
1207,2203;0,049038
1208,1846;0,0492602
1209,1488;0,0494868
1210,1130;0,0497518
1211,0773;0,0500856
1212,0415;0,0505067
1213,0057;0,0510175
1213,9700;0,0516066
1214,9342;0,0522552
1215,8984;0,0529441
1216,8627;0,0536571
1217,8269;0,054381
1218,7911;0,0551037
1219,7554;0,0558135
1220,7196;0,0565001
1221,6838;0,0571568
1222,6481;0,0577819
1223,6123;0,0583765
1224,5765;0,0589429
1225,5408;0,0594814
1226,5050;0,0599896
1227,4692;0,0604632
1228,4335;0,0608978
1229,3977;0,0612899
1230,3619;0,061637
1231,3262;0,0619369
1232,2904;0,0621871
1233,2546;0,0623851
1234,2189;0,0625298
1235,1831;0,0626239
1236,1473;0,0626742
1237,1116;0,0626911
1238,0758;0,0626859
1239,0400;0,0626674
1240,0043;0,0626392
1240,9685;0,0625991
1241,9327;0,06254
1242,8970;0,0624522
1243,8612;0,0623261
1244,8254;0,0621545
1245,7897;0,0619348
1246,7539;0,0616706
1247,7181;0,0613708
1248,6824;0,0610482
1249,6466;0,0607167
1250,6108;0,0603886
1251,5751;0,0600731
1252,5393;0,0597761
1253,5035;0,0594999
1254,4678;0,059243
1255,4320;0,0589996
1256,3962;0,0587602
1257,3605;0,0585146
1258,3247;0,0582545
1259,2889;0,0579756
1260,2532;0,0576782
1261,2174;0,057364
1262,1816;0,057034
1263,1459;0,0566868
1264,1101;0,0563201
1265,0743;0,0559316
1266,0386;0,0555204
1267,0028;0,055087
1267,9670;0,0546325
1268,9313;0,0541599
1269,8955;0,0536745
1270,8597;0,0531839
1271,8240;0,0526968
1272,7882;0,0522196
1273,7524;0,0517549
1274,7167;0,0513021
1275,6809;0,0508601
1276,6451;0,0504284
1277,6094;0,0500072
1278,5736;0,0495951
1279,5378;0,0491877
1280,5021;0,0487784
1281,4663;0,0483619
1282,4305;0,0479379
1283,3948;0,0475121
1284,3590;0,0470964
1285,3232;0,0467061
1286,2875;0,0463584
1287,2517;0,0460697
1288,2159;0,0458527
1289,1802;0,0457129
1290,1444;0,0456468
1291,1086;0,0456439
1292,0729;0,0456918
1293,0371;0,0457829
1294,0013;0,0459179
1294,9656;0,0461044
1295,9298;0,0463525
1296,8940;0,0466694
1297,8583;0,047056
1298,8225;0,0475076
1299,7867;0,048016
1300,7510;0,0485719
1301,7152;0,0491675
1302,6794;0,0497979
1303,6437;0,050462
1304,6079;0,0511613
1305,5721;0,0518969
1306,5364;0,0526653
1307,5006;0,0534566
1308,4648;0,0542569
1309,4291;0,0550515
1310,3933;0,0558272
1311,3575;0,0565702
1312,3218;0,0572622
1313,2860;0,0578783
1314,2502;0,0583889
1315,2145;0,0587657
1316,1787;0,0589876
1317,1429;0,0590471
1318,1072;0,0589552
1319,0714;0,058742
1320,0356;0,0584508
1320,9999;0,058126
1321,9641;0,0578014
1322,9283;0,0574973
1323,8926;0,0572233
1324,8568;0,0569849
1325,8210;0,0567856
1326,7853;0,0566262
1327,7495;0,0565032
1328,7137;0,0564075
1329,6780;0,0563253
1330,6422;0,05624
1331,6064;0,0561348
1332,5707;0,0559931
1333,5349;0,0557989
1334,4991;0,0555346
1335,4634;0,0551809
1336,4276;0,0547208
1337,3918;0,0541521
1338,3561;0,053503
1339,3203;0,052836
1340,2845;0,0522234
1341,2488;0,0517094
1342,2130;0,0512947
1343,1772;0,0509535
1344,1415;0,05066
1345,1057;0,0504046
1346,0699;0,0501958
1347,0342;0,0500517
1347,9984;0,0499893
1348,9626;0,0500157
1349,9269;0,0501263
1350,8911;0,0503067
1351,8553;0,0505383
1352,8196;0,0508037
1353,7838;0,051091
1354,7480;0,0513964
1355,7123;0,0517218
1356,6765;0,0520681
1357,6407;0,0524304
