TITLE;
DATA TYPE;INFRARED SPECTRUM
ORIGIN;JASCO
OWNER;
DATE;25/03/20
TIME;12:46:04
SPECTROMETER/DATA SYSTEM;
LOCALE;9226
RESOLUTION;
DELTAX;0,964233
XUNITS;1/CM
YUNITS;ABSORBANCE
FIRSTX;  399,1927
LASTX; 4000,6047
NPOINTS;    3736
FIRSTY;     0,22432
MAXY;     0,30455
MINY;    -0,00477
XYDATA
399,1927;0,224323
400,1569;0,22447
401,1211;0,223886
402,0854;0,222922
403,0496;0,221866
404,0138;0,220986
404,9781;0,22055
405,9423;0,220784
406,9065;0,221765
407,8708;0,223373
408,8350;0,22535
409,7992;0,227422
410,7635;0,229398
411,7277;0,231222
412,6919;0,232946
413,6562;0,23467
414,6204;0,23648
415,5846;0,238403
416,5489;0,240373
417,5131;0,2422
418,4773;0,243628
419,4416;0,244574
420,4058;0,245274
421,3700;0,246031
422,3343;0,246933
423,2985;0,247855
424,2627;0,248583
425,2270;0,248942
426,1912;0,248908
427,1554;0,248627
428,1197;0,24834
429,0839;0,24827
430,0481;0,24853
431,0124;0,249086
431,9766;0,249763
432,9408;0,25029
433,9051;0,250392
434,8693;0,249902
435,8335;0,248849
436,7978;0,247466
437,7620;0,246082
438,7262;0,244989
439,6905;0,244349
440,6547;0,244196
441,6189;0,24445
442,5832;0,244929
443,5474;0,245364
444,5116;0,245471
445,4759;0,245064
446,4401;0,244149
447,4043;0,242908
448,3686;0,241619
449,3328;0,240539
450,2970;0,23981
451,2613;0,23943
452,2255;0,239297
453,1897;0,239306
454,1540;0,239416
455,1182;0,239628
456,0824;0,239907
457,0467;0,240106
458,0109;0,240001
458,9751;0,239443
459,9394;0,2385
460,9036;0,237408
461,8678;0,236405
462,8321;0,235616
463,7963;0,235034
464,7605;0,234559
465,7248;0,234087
466,6890;0,233587
467,6532;0,233129
468,6175;0,232853
469,5817;0,232889
470,5459;0,233281
471,5102;0,233936
472,4744;0,234638
473,4386;0,235155
474,4029;0,235367
475,3671;0,23532
476,3313;0,235166
477,2956;0,235077
478,2598;0,23518
479,2240;0,235529
480,1883;0,236107
481,1525;0,236842
482,1167;0,237642
483,0810;0,23842
484,0452;0,239109
485,0094;0,23969
485,9737;0,240193
486,9379;0,240684
487,9021;0,241225
488,8664;0,241836
489,8306;0,242472
490,7948;0,243038
491,7591;0,243436
492,7233;0,243628
493,6875;0,243665
494,6518;0,24366
495,6160;0,243722
496,5802;0,243904
497,5445;0,244198
498,5087;0,244563
499,4729;0,244958
500,4372;0,245363
501,4014;0,245775
502,3656;0,246191
503,3299;0,246603
504,2941;0,247002
505,2583;0,247393
506,2226;0,247792
507,1868;0,248217
508,1510;0,248678
509,1153;0,249185
510,0795;0,249755
511,0437;0,250424
512,0080;0,25123
512,9722;0,252194
513,9365;0,253284
514,9007;0,254416
515,8649;0,255465
516,8292;0,256295
517,7934;0,256802
518,7576;0,25695
519,7219;0,256774
520,6861;0,256363
521,6503;0,255819
522,6146;0,25525
523,5788;0,254753
524,5430;0,2544
525,5073;0,254204
526,4715;0,254096
527,4357;0,253953
528,4000;0,253664
529,3642;0,253186
530,3284;0,252555
531,2927;0,251859
532,2569;0,251206
533,2211;0,250688
534,1854;0,250353
535,1496;0,25019
536,1138;0,250135
537,0781;0,250101
538,0423;0,250019
539,0065;0,249883
539,9708;0,249768
540,9350;0,249799
541,8992;0,25009
542,8635;0,250681
543,8277;0,251504
544,7919;0,252409
545,7562;0,253224
546,7204;0,253837
547,6846;0,254231
548,6489;0,254475
549,6131;0,254676
550,5773;0,254932
551,5416;0,255311
552,5058;0,255848
553,4700;0,25654
554,4343;0,257331
555,3985;0,258091
556,3627;0,258626
557,3270;0,258718
558,2912;0,258198
559,2554;0,257006
560,2197;0,255224
561,1839;0,253059
562,1481;0,250781
563,1124;0,248652
564,0766;0,24685
565,0408;0,24544
566,0051;0,244378
566,9693;0,243552
567,9335;0,242845
568,8978;0,242184
569,8620;0,241564
570,8262;0,241036
571,7905;0,240658
572,7547;0,240466
573,7189;0,240447
574,6832;0,240547
575,6474;0,240686
576,6116;0,240781
577,5759;0,24077
578,5401;0,240627
579,5043;0,240357
580,4686;0,239987
581,4328;0,239553
582,3970;0,239085
583,3613;0,238602
584,3255;0,23812
585,2897;0,237665
586,2540;0,237292
587,2182;0,237068
588,1824;0,237049
589,1467;0,237238
590,1109;0,237559
591,0751;0,237867
592,0394;0,237994
593,0036;0,237825
593,9678;0,237344
594,9321;0,236632
595,8963;0,235806
596,8605;0,234964
597,8248;0,234161
598,7890;0,233407
599,7532;0,232697
600,7175;0,232033
601,6817;0,231428
602,6459;0,230894
603,6102;0,230427
604,5744;0,229994
605,5386;0,229539
606,5029;0,229
607,4671;0,228326
608,4313;0,2275
609,3956;0,226553
610,3598;0,225565
611,3240;0,224653
612,2883;0,223925
613,2525;0,223429
614,2167;0,223104
615,1810;0,222766
616,1452;0,222157
617,1094;0,221054
618,0737;0,219392
619,0379;0,217311
620,0021;0,215078
620,9664;0,212956
621,9306;0,211105
622,8948;0,209565
623,8591;0,208292
624,8233;0,207174
625,7875;0,206222
626,7518;0,205392
627,7160;0,204651
628,6802;0,203954
629,6445;0,20326
630,6087;0,202533
631,5729;0,201763
632,5372;0,200961
633,5014;0,200143
634,4656;0,199323
635,4299;0,198514
636,3941;0,197733
637,3583;0,197008
638,3226;0,196367
639,2868;0,19583
640,2510;0,195388
641,2153;0,195008
642,1795;0,194641
643,1437;0,194248
644,1080;0,193811
645,0722;0,19334
646,0364;0,192852
647,0007;0,192363
647,9649;0,191884
648,9291;0,191422
649,8934;0,190996
650,8576;0,190645
651,8218;0,190411
652,7861;0,190333
653,7503;0,190417
654,7145;0,190636
655,6788;0,19093
656,6430;0,191241
657,6072;0,191532
658,5715;0,191792
659,5357;0,191992
660,4999;0,192046
661,4642;0,191825
662,4284;0,191202
663,3926;0,190114
664,3569;0,188622
665,3211;0,186997
666,2853;0,185747
667,2496;0,185299
668,2138;0,185299
669,1780;0,184774
670,1423;0,183473
671,1065;0,181765
672,0707;0,179801
673,0350;0,177554
673,9992;0,175084
674,9634;0,172581
675,9277;0,170241
676,8919;0,168153
677,8561;0,166278
678,8204;0,164526
679,7846;0,162851
680,7488;0,161269
681,7131;0,159829
682,6773;0,158567
683,6415;0,157495
684,6058;0,156609
685,5700;0,1559
686,5342;0,155343
687,4985;0,154887
688,4627;0,154474
689,4269;0,154049
690,3912;0,153595
691,3554;0,153127
692,3196;0,152666
693,2839;0,152213
694,2481;0,151751
695,2123;0,151256
696,1766;0,150713
697,1408;0,150124
698,1050;0,149495
699,0693;0,148828
700,0335;0,148122
700,9977;0,147383
701,9620;0,14663
702,9262;0,145889
703,8904;0,145163
704,8547;0,144444
705,8189;0,1437
706,7831;0,142892
707,7474;0,142001
708,7116;0,141044
709,6758;0,140063
710,6401;0,139095
711,6043;0,13815
712,5685;0,137211
713,5328;0,13626
714,4970;0,135304
715,4612;0,133627
716,4255;0,132939
717,3897;0,132381
718,3539;0,131833
719,3182;0,131105
720,2824;0,130034
721,2466;0,128589
722,2109;0,126888
723,1751;0,125131
724,1393;0,123488
725,1036;0,122043
726,0678;0,12079
727,0320;0,119678
727,9963;0,118655
728,9605;0,117692
729,9247;0,116777
730,8890;0,115902
731,8532;0,115053
732,8174;0,114221
733,7817;0,113409
734,7459;0,112635
735,7101;0,111921
736,6744;0,111273
737,6386;0,11068
738,6028;0,110111
739,5671;0,109535
740,5313;0,108931
741,4955;0,108296
742,4598;0,107642
743,4240;0,106985
744,3882;0,106339
745,3525;0,105715
746,3167;0,105116
747,2809;0,104546
748,2452;0,103999
749,2094;0,103469
750,1736;0,102942
751,1379;0,102405
752,1021;0,10185
753,0663;0,101277
754,0306;0,100692
754,9948;0,100099
755,9590;0,0995046
756,9233;0,0989147
757,8875;0,0983419
758,8517;0,097805
759,8160;0,0973211
760,7802;0,096894
761,7444;0,096506
762,7087;0,0961234
763,6729;0,0957125
764,6371;0,0952593
765,6014;0,0947777
766,5656;0,094302
767,5298;0,0938677
768,4941;0,0934924
769,4583;0,0931697
770,4225;0,0928772
771,3868;0,0925927
772,3510;0,092306
773,3152;0,0920212
774,2795;0,0917498
775,2437;0,0915003
776,2079;0,0912706
777,1722;0,0910458
778,1364;0,0908
779,1006;0,0905028
780,0649;0,0901292
781,0291;0,0896705
781,9933;0,0891403
782,9576;0,0885703
783,9218;0,0879964
784,8860;0,0874425
785,8503;0,0869125
786,8145;0,0863965
787,7787;0,0858862
788,7430;0,085386
789,7072;0,0849131
790,6714;0,0844854
791,6357;0,0841089
792,5999;0,083774
793,5641;0,0834631
794,5284;0,0831612
795,4926;0,0828618
796,4568;0,0825634
797,4211;0,0822646
798,3853;0,0819627
799,3495;0,081657
800,3138;0,0813532
801,2780;0,0810619
802,2422;0,0807906
803,2065;0,0805369
804,1707;0,0802893
805,1349;0,0800357
806,0992;0,079773
807,0634;0,0795108
808,0276;0,0792652
808,9919;0,0790481
809,9561;0,0788595
810,9203;0,0786876
811,8846;0,0785166
812,8488;0,0783353
813,8130;0,0781421
814,7773;0,0779442
815,7415;0,0777529
816,7057;0,0775779
817,6700;0,0774237
818,6342;0,0772891
819,5984;0,0771679
820,5627;0,0770518
821,5269;0,076933
822,4911;0,0768052
823,4554;0,0766629
824,4196;0,0765001
825,3839;0,0763085
826,3481;0,0760802
827,3123;0,0758111
828,2766;0,0755069
829,2408;0,0751834
830,2050;0,0748629
831,1693;0,0745646
832,1335;0,074296
833,0977;0,0740489
834,0620;0,0738045
835,0262;0,0735431
835,9904;0,0732548
836,9547;0,0729429
837,9189;0,0726207
838,8831;0,0723035
839,8474;0,0720016
840,8116;0,0717172
841,7758;0,0714463
842,7401;0,0711829
843,7043;0,0709218
844,6685;0,0706609
845,6328;0,0704016
846,5970;0,0701499
847,5612;0,0699151
848,5255;0,0697072
849,4897;0,0695334
850,4539;0,0693941
851,4182;0,0692822
852,3824;0,0691846
853,3466;0,0690862
854,3109;0,0689738
855,2751;0,0688383
856,2393;0,0686765
857,2036;0,0684923
858,1678;0,0682967
859,1320;0,0681052
860,0963;0,0679334
861,0605;0,0677917
862,0247;0,0676834
862,9890;0,0676074
863,9532;0,0675644
864,9174;0,0675606
865,8817;0,0676073
866,8459;0,0677139
867,8101;0,0678806
868,7744;0,0680946
869,7386;0,0683331
870,7028;0,0685722
871,6671;0,0687957
872,6313;0,0690009
873,5955;0,0691997
874,5598;0,0694147
875,5240;0,0696712
876,4882;0,0699887
877,4525;0,0703736
878,4167;0,0708164
879,3809;0,0712989
880,3452;0,0718064
881,3094;0,0723401
882,2736;0,0729222
883,2379;0,073588
884,2021;0,0743703
885,1663;0,0752844
886,1306;0,0763223
887,0948;0,0774585
888,0590;0,0786628
889,0233;0,0799084
889,9875;0,0811722
890,9517;0,0824266
891,9160;0,0836318
892,8802;0,0847351
893,8444;0,0856787
894,8087;0,0864132
895,7729;0,0869078
896,7371;0,0871537
897,7014;0,0871594
898,6656;0,0869432
899,6298;0,0865259
900,5941;0,0859281
901,5583;0,0851699
902,5225;0,0842745
903,4868;0,0832726
904,4510;0,0822062
905,4152;0,0811297
906,3795;0,0801052
907,3437;0,0791915
908,3079;0,0784294
909,2722;0,0778302
910,2364;0,0773747
911,2007;0,0770237
912,1649;0,076737
913,1292;0,0764915
914,0934;0,0762891
915,0576;0,0761518
916,0219;0,0761055
916,9861;0,076164
917,9503;0,076319
918,9146;0,0765429
919,8788;0,0768004
920,8430;0,0770632
921,8073;0,077319
922,7715;0,0775727
923,7357;0,0778375
924,7000;0,0781246
925,6642;0,0784347
926,6284;0,0787582
927,5927;0,0790814
928,5569;0,0793948
929,5211;0,079698
930,4854;0,0799984
931,4496;0,0803073
932,4138;0,0806356
933,3781;0,0809934
934,3423;0,081393
935,3065;0,0818504
936,2708;0,0823848
937,2350;0,0830144
938,1992;0,0837513
939,1635;0,0845995
940,1277;0,0855561
941,0919;0,0866145
942,0562;0,0877689
943,0204;0,089017
943,9846;0,0903604
944,9489;0,0918018
945,9131;0,0933407
946,8773;0,0949688
947,8416;0,0966699
948,8058;0,0984252
949,7700;0,100222
950,7343;0,102059
951,6985;0,103946
952,6627;0,105898
953,6270;0,107921
954,5912;0,110009
955,5554;0,112151
956,5197;0,114338
957,4839;0,116571
958,4481;0,118856
959,4124;0,121201
960,3766;0,123601
961,3408;0,126046
962,3051;0,12852
963,2693;0,131014
964,2335;0,133526
965,1978;0,136058
966,1620;0,138612
967,1262;0,141199
968,0905;0,143839
969,0547;0,146572
970,0189;0,149449
970,9832;0,152525
971,9474;0,155845
972,9116;0,159435
973,8759;0,163305
974,8401;0,167452
975,8043;0,17187
976,7686;0,176539
977,7328;0,18142
978,6970;0,18644
979,6613;0,191489
980,6255;0,196435
981,5897;0,201138
982,5540;0,205485
983,5182;0,209407
984,4824;0,2129
985,4467;0,216011
986,4109;0,218825
987,3751;0,221429
988,3394;0,223888
989,3036;0,226231
990,2678;0,228451
991,2321;0,230517
992,1963;0,232391
993,1605;0,23405
994,1248;0,235491
995,0890;0,236737
996,0532;0,237821
997,0175;0,238782
997,9817;0,239655
998,9459;0,240474
999,9102;0,24128
1000,8744;0,242128
1001,8386;0,24309
1002,8029;0,244242
1003,7671;0,245648
1004,7313;0,247349
1005,6956;0,24936
1006,6598;0,251679
1007,6240;0,254297
1008,5883;0,2572
1009,5525;0,260363
1010,5167;0,263744
1011,4810;0,267276
1012,4452;0,270869
1013,4094;0,274422
1014,3737;0,277838
1015,3379;0,281042
1016,3021;0,283988
1017,2664;0,286659
1018,2306;0,289059
1019,1948;0,291204
1020,1591;0,293119
1021,1233;0,294835
1022,0875;0,296391
1023,0518;0,297826
1024,0160;0,299176
1024,9802;0,300453
1025,9445;0,301647
1026,9087;0,302721
1027,8729;0,303617
1028,8372;0,304258
1029,8014;0,304548
1030,7656;0,30437
1031,7299;0,303596
1032,6941;0,302122
1033,6583;0,299906
1034,6226;0,297006
1035,5868;0,293595
1036,5510;0,289927
1037,5153;0,286295
1038,4795;0,282968
1039,4437;0,280148
1040,4080;0,277942
1041,3722;0,276368
1042,3364;0,275363
1043,3007;0,274809
1044,2649;0,274559
1045,2291;0,274466
1046,1934;0,2744
1047,1576;0,27426
1048,1218;0,273968
1049,0861;0,273458
1050,0503;0,272673
1051,0145;0,271563
1051,9788;0,270097
1052,9430;0,26827
1053,9072;0,266109
1054,8715;0,263647
1055,8357;0,260896
1056,7999;0,257825
1057,7642;0,254362
1058,7284;0,250427
1059,6926;0,245989
1060,6569;0,241106
1061,6211;0,235937
1062,5853;0,230703
1063,5496;0,225622
1064,5138;0,220857
1065,4780;0,216482
1066,4423;0,21249
1067,4065;0,208826
1068,3707;0,205418
1069,3350;0,202198
1070,2992;0,199108
1071,2634;0,196093
1072,2277;0,193097
1073,1919;0,190064
1074,1561;0,186954
1075,1204;0,183746
1076,0846;0,180456
1077,0488;0,177137
1078,0131;0,173875
1078,9773;0,170773
1079,9415;0,167935
1080,9058;0,165438
1081,8700;0,163326
1082,8342;0,161598
1083,7985;0,16022
1084,7627;0,159136
1085,7269;0,158288
1086,6912;0,157627
1087,6554;0,157117
1088,6196;0,156736
1089,5839;0,156471
1090,5481;0,156316
1091,5123;0,156265
1092,4766;0,156304
1093,4408;0,156416
1094,4050;0,15658
1095,3693;0,156778
1096,3335;0,156993
1097,2977;0,157215
1098,2620;0,15743
1099,2262;0,157621
1100,1904;0,15776
1101,1547;0,157815
1102,1189;0,15776
1103,0831;0,157582
1104,0474;0,157287
1105,0116;0,156896
1105,9758;0,156436
1106,9401;0,155925
1107,9043;0,155355
1108,8685;0,154689
1109,8328;0,153855
1110,7970;0,152768
1111,7612;0,15135
1112,7255;0,149569
1113,6897;0,147456
1114,6539;0,145117
1115,6182;0,142702
1116,5824;0,140365
1117,5466;0,138212
1118,5109;0,136271
1119,4751;0,134495
1120,4393;0,132777
1121,4036;0,131
1122,3678;0,129063
1123,3320;0,126907
1124,2963;0,124513
1125,2605;0,121896
1126,2247;0,119092
1127,1890;0,116152
1128,1532;0,113133
1129,1174;0,110094
1130,0817;0,107088
1131,0459;0,104158
1132,0101;0,101335
1132,9744;0,0986493
1133,9386;0,096141
1134,9028;0,093863
1135,8671;0,091878
1136,8313;0,0902435
1137,7955;0,0889973
1138,7598;0,0881472
1139,7240;0,0876734
1140,6882;0,0875386
1141,6525;0,0876992
1142,6167;0,088112
1143,5809;0,0887347
1144,5452;0,0895241
1145,5094;0,0904361
1146,4736;0,0914318
1147,4379;0,0924839
1148,4021;0,0935791
1149,3663;0,0947126
1150,3306;0,0958759
1151,2948;0,0970468
1152,2590;0,0981858
1153,2233;0,0992426
1154,1875;0,100166
1155,1517;0,100912
1156,1160;0,101436
1157,0802;0,101689
1158,0444;0,1016
1159,0087;0,101079
1159,9729;0,100026
1160,9371;0,0983554
1161,9014;0,0960229
1162,8656;0,0930476
1163,8298;0,0895173
1164,7941;0,0855776
1165,7583;0,081408
1166,7225;0,0771926
1167,6868;0,0730942
1168,6510;0,0692369
1169,6152;0,0656992
1170,5795;0,0625163
1171,5437;0,0596899
1172,5079;0,0571997
1173,4722;0,0550155
1174,4364;0,0531056
1175,4006;0,051441
1176,3649;0,0499968
1177,3291;0,048751
1178,2933;0,047684
1179,2576;0,0467783
1180,2218;0,0460191
1181,1860;0,0453935
1182,1503;0,0448906
1183,1145;0,0445002
1184,0787;0,0442135
1185,0430;0,0440246
1186,0072;0,0439324
1186,9714;0,0439407
1187,9357;0,0440568
1188,8999;0,0442884
1189,8641;0,0446403
1190,8284;0,0451138
1191,7926;0,0457057
1192,7568;0,0464081
1193,7211;0,0472064
1194,6853;0,0480779
1195,6495;0,0489917
1196,6138;0,0499133
1197,5780;0,0508115
1198,5422;0,0516647
1199,5065;0,0521252
1200,4707;0,0529075
1201,4349;0,0536372
1202,3992;0,0543108
1203,3634;0,0549203
1204,3276;0,0554568
1205,2919;0,0559158
1206,2561;0,0563029
1207,2203;0,0566365
1208,1846;0,0569469
1209,1488;0,0572728
1210,1130;0,0576541
1211,0773;0,0581254
1212,0415;0,0587097
1213,0057;0,0594152
1213,9700;0,0602359
1214,9342;0,0611552
1215,8984;0,0621508
1216,8627;0,0631963
1217,8269;0,0642637
1218,7911;0,0653312
1219,7554;0,0663835
1220,7196;0,0674133
1221,6838;0,0684188
1222,6481;0,0693994
1223,6123;0,0703508
1224,5765;0,0712636
1225,5408;0,0721255
1226,5050;0,0729266
1227,4692;0,0736633
1228,4335;0,0743385
1229,3977;0,0749579
1230,3619;0,075525
1231,3262;0,076037
1232,2904;0,076486
1233,2546;0,0768626
1234,2189;0,0771618
1235,1831;0,0773869
1236,1473;0,0775501
1237,1116;0,0776688
1238,0758;0,0777602
1239,0400;0,0778351
1240,0043;0,0778949
1240,9685;0,0779323
1241,9327;0,0779352
1242,8970;0,0778911
1243,8612;0,0777908
1244,8254;0,0776298
1245,7897;0,0774078
1246,7539;0,0771292
1247,7181;0,0768029
1248,6824;0,0764424
1249,6466;0,0760648
1250,6108;0,0756876
1251,5751;0,0753254
1252,5393;0,0749884
1253,5035;0,0746816
1254,4678;0,074405
1255,4320;0,0741542
1256,3962;0,0739199
1257,3605;0,0736874
1258,3247;0,0734387
1259,2889;0,0731559
1260,2532;0,072826
1261,2174;0,0724436
1262,1816;0,0720114
1263,1459;0,0715375
1264,1101;0,0710319
1265,0743;0,0705039
1266,0386;0,0699589
1267,0028;0,0693968
1267,9670;0,0688106
1268,9313;0,0681882
1269,8955;0,0675171
1270,8597;0,066791
1271,8240;0,0660144
1272,7882;0,0652038
1273,7524;0,0643843
1274,7167;0,0635843
1275,6809;0,0628279
1276,6451;0,0621285
1277,6094;0,0614834
1278,5736;0,0608735
1279,5378;0,0602701
1280,5021;0,0596479
1281,4663;0,0589992
1282,4305;0,0583396
1283,3948;0,0577023
1284,3590;0,0571241
1285,3232;0,0566312
1286,2875;0,0562321
1287,2517;0,0559198
1288,2159;0,0556813
1289,1802;0,0555076
1290,1444;0,0553991
1291,1086;0,0553645
1292,0729;0,0554151
1293,0371;0,0555602
1294,0013;0,0558036
1294,9656;0,0561435
1295,9298;0,0565733
1296,8940;0,0570842
1297,8583;0,0576665
1298,8225;0,0583118
1299,7867;0,0590141
1300,7510;0,0597705
1301,7152;0,060587
1302,6794;0,0614707
1303,6437;0,0624277
1304,6079;0,0634602
1305,5721;0,0645618
1306,5364;0,065719
1307,5006;0,0669163
1308,4648;0,0681416
1309,4291;0,0693836
1310,3933;0,0706254
1311,3575;0,0718359
1312,3218;0,0729697
1313,2860;0,0739765
1314,2502;0,0748116
1315,2145;0,0754382
1316,1787;0,0758209
1317,1429;0,0759237
1318,1072;0,0757225
1319,0714;0,0752326
1320,0356;0,0745248
1320,9999;0,0737123
1321,9641;0,0729113
1322,9283;0,072205
1323,8926;0,0716318
1324,8568;0,0711931
1325,8210;0,0708699
1326,7853;0,0706365
1327,7495;0,0704663
1328,7137;0,0703324
1329,6780;0,0702075
1330,6422;0,0700689
1331,6064;0,0699095
1332,5707;0,0697417
1333,5349;0,0695977
1334,4991;0,069508
1335,4634;0,0694721
1336,4276;0,0694294
1337,3918;0,069246
1338,3561;0,0687548
1339,3203;0,0678627
1340,2845;0,0666496
1341,2488;0,0653359
1342,2130;0,0641433
1343,1772;0,0631934
1344,1415;0,0625061
1345,1057;0,0620464
1346,0699;0,0617655
1347,0342;0,0616211
1347,9984;0,0615898
1348,9626;0,0616672
1349,9269;0,0618593
1350,8911;0,062167
1351,8553;0,0625747
1352,8196;0,0630493
1353,7838;0,0635515
1354,7480;0,0640551
1355,7123;0,0645638
1356,6765;0,065111
1357,6407;0,0657414
1358,6050;0,0664854
1359,5692;0,0673339
1360,5334;0,0682119
1361,4977;0,0689785
1362,4619;0,0695065
