TITLE;
DATA TYPE;INFRARED SPECTRUM
ORIGIN;JASCO
OWNER;
DATE;25/03/20
TIME;12:20:20
SPECTROMETER/DATA SYSTEM;
LOCALE;9226
RESOLUTION;
DELTAX;0,964233
XUNITS;1/CM
YUNITS;ABSORBANCE
FIRSTX;  399,1927
LASTX; 4000,6047
NPOINTS;    3736
FIRSTY;     0,20292
MAXY;     0,24904
MINY;    -0,00439
XYDATA
399,1927;0,202925
400,1569;0,202642
401,1211;0,201019
402,0854;0,198613
403,0496;0,196001
404,0138;0,193771
404,9781;0,192491
405,9423;0,192555
406,9065;0,193992
407,8708;0,196416
408,8350;0,1992
409,7992;0,201737
410,7635;0,203632
411,7277;0,204789
412,6919;0,205386
413,6562;0,205768
414,6204;0,206319
415,5846;0,207392
416,5489;0,209262
417,5131;0,211936
418,4773;0,214827
419,4416;0,216852
420,4058;0,217342
421,3700;0,216568
422,3343;0,215214
423,2985;0,213828
424,2627;0,212745
425,2270;0,212156
426,1912;0,212131
427,1554;0,212613
428,1197;0,213424
429,0839;0,214321
430,0481;0,215061
431,0124;0,215459
431,9766;0,21544
432,9408;0,215036
433,9051;0,214364
434,8693;0,21358
435,8335;0,212842
436,7978;0,212282
437,7620;0,21197
438,7262;0,211896
439,6905;0,211969
440,6547;0,212056
441,6189;0,212027
442,5832;0,211807
443,5474;0,211399
444,5116;0,210859
445,4759;0,210237
446,4401;0,209547
447,4043;0,208774
448,3686;0,207915
449,3328;0,207013
450,2970;0,206155
451,2613;0,205452
452,2255;0,204996
453,1897;0,204833
454,1540;0,204944
455,1182;0,205247
456,0824;0,205583
457,0467;0,205732
458,0109;0,205496
458,9751;0,204824
459,9394;0,203862
460,9036;0,20285
461,8678;0,201986
462,8321;0,201362
463,7963;0,200966
464,7605;0,20072
465,7248;0,200528
466,6890;0,200337
467,6532;0,200161
468,6175;0,200056
469,5817;0,20007
470,5459;0,200203
471,5102;0,200406
472,4744;0,200633
473,4386;0,200886
474,4029;0,201202
475,3671;0,201593
476,3313;0,201998
477,2956;0,202301
478,2598;0,202411
479,2240;0,202342
480,1883;0,202226
481,1525;0,202249
482,1167;0,202533
483,0810;0,203048
484,0452;0,203644
485,0094;0,204158
485,9737;0,20454
486,9379;0,204868
487,9021;0,205265
488,8664;0,205785
489,8306;0,206376
490,7948;0,206919
491,7591;0,207312
492,7233;0,207531
493,6875;0,207628
494,6518;0,207674
495,6160;0,207701
496,5802;0,207706
497,5445;0,207688
498,5087;0,207679
499,4729;0,207742
500,4372;0,207927
501,4014;0,208236
502,3656;0,208602
503,3299;0,208937
504,2941;0,209191
505,2583;0,209381
506,2226;0,209578
507,1868;0,209845
508,1510;0,210199
509,1153;0,210591
510,0795;0,210942
511,0437;0,2112
512,0080;0,211389
512,9722;0,21161
513,9365;0,211994
514,9007;0,212627
515,8649;0,213476
516,8292;0,214364
517,7934;0,215033
518,7576;0,215283
519,7219;0,215099
520,6861;0,21464
521,6503;0,214125
522,6146;0,213711
523,5788;0,21345
524,5430;0,213303
525,5073;0,213183
526,4715;0,213009
527,4357;0,212742
528,4000;0,212386
529,3642;0,211974
530,3284;0,211546
531,2927;0,211151
532,2569;0,210832
533,2211;0,210609
534,1854;0,210468
535,1496;0,210356
536,1138;0,210216
537,0781;0,210017
538,0423;0,209772
539,0065;0,209529
539,9708;0,209342
540,9350;0,20925
541,8992;0,209269
542,8635;0,209402
543,8277;0,209638
544,7919;0,209952
545,7562;0,210298
546,7204;0,210618
547,6846;0,210858
548,6489;0,211
549,6131;0,211073
550,5773;0,211141
551,5416;0,211282
552,5058;0,211551
553,4700;0,211966
554,4343;0,212488
555,3985;0,213022
556,3627;0,213427
557,3270;0,213544
558,2912;0,213241
559,2554;0,212459
560,2197;0,211241
561,1839;0,209735
562,1481;0,208146
563,1124;0,206673
564,0766;0,205446
565,0408;0,204494
566,0051;0,203767
566,9693;0,203185
567,9335;0,20269
568,8978;0,202276
569,8620;0,201972
570,8262;0,201802
571,7905;0,201759
572,7547;0,201797
573,7189;0,201858
574,6832;0,201902
575,6474;0,201916
576,6116;0,201908
577,5759;0,20188
578,5401;0,201818
579,5043;0,201686
580,4686;0,201446
581,4328;0,201086
582,3970;0,200624
583,3613;0,200112
584,3255;0,199621
585,2897;0,199226
586,2540;0,198987
587,2182;0,198931
588,1824;0,199038
589,1467;0,199235
590,1109;0,199411
591,0751;0,199451
592,0394;0,199286
593,0036;0,19892
593,9678;0,198424
594,9321;0,197887
595,8963;0,197362
596,8605;0,19685
597,8248;0,196312
598,7890;0,195709
599,7532;0,195042
600,7175;0,194357
601,6817;0,193724
602,6459;0,193189
603,6102;0,192751
604,5744;0,192362
605,5386;0,191952
606,5029;0,191459
607,4671;0,19085
608,4313;0,190125
609,3956;0,189315
610,3598;0,188482
611,3240;0,18771
612,2883;0,187089
613,2525;0,186674
614,2167;0,18644
615,1810;0,186257
616,1452;0,18591
617,1094;0,18519
618,0737;0,184
619,0379;0,182419
620,0021;0,180657
620,9664;0,178944
621,9306;0,17744
622,8948;0,176205
623,8591;0,175213
624,8233;0,174366
625,7875;0,173661
626,7518;0,173044
627,7160;0,172479
628,6802;0,171932
629,6445;0,171384
630,6087;0,170827
631,5729;0,170275
632,5372;0,169751
633,5014;0,169272
634,4656;0,168836
635,4299;0,16842
636,3941;0,168
637,3583;0,167561
638,3226;0,167112
639,2868;0,166676
640,2510;0,166271
641,2153;0,165904
642,1795;0,165569
643,1437;0,165252
644,1080;0,164947
645,0722;0,164647
646,0364;0,16434
647,0007;0,164003
647,9649;0,163614
648,9291;0,163171
649,8934;0,162713
650,8576;0,16231
651,8218;0,162027
652,7861;0,161897
653,7503;0,161899
654,7145;0,161979
655,6788;0,162077
656,6430;0,162161
657,6072;0,162233
658,5715;0,162314
659,5357;0,162396
660,4999;0,162412
661,4642;0,162253
662,4284;0,161805
663,3926;0,161
664,3569;0,159868
665,3211;0,158613
666,2853;0,157644
667,2496;0,157304
668,2138;0,157304
669,1780;0,156905
670,1423;0,155981
671,1065;0,154838
672,0707;0,153534
673,0350;0,151978
673,9992;0,150176
674,9634;0,148255
675,9277;0,146375
676,8919;0,144642
677,8561;0,14308
678,8204;0,141672
679,7846;0,140403
680,7488;0,139271
681,7131;0,138259
682,6773;0,137332
683,6415;0,136456
684,6058;0,135627
685,5700;0,134871
686,5342;0,134216
687,4985;0,133661
688,4627;0,133178
689,4269;0,132718
690,3912;0,132257
691,3554;0,131798
692,3196;0,13136
693,2839;0,130947
694,2481;0,130545
695,2123;0,130131
696,1766;0,129686
697,1408;0,129201
698,1050;0,128672
699,0693;0,128096
700,0335;0,127478
700,9977;0,126832
701,9620;0,126189
702,9262;0,125577
703,8904;0,124996
704,8547;0,124431
705,8189;0,123848
706,7831;0,123218
707,7474;0,122535
708,7116;0,12182
709,6758;0,121106
710,6401;0,12041
711,6043;0,119721
712,5685;0,119011
713,5328;0,118258
714,4970;0,117475
715,4612;0,116023
716,4255;0,115455
717,3897;0,115
718,3539;0,114553
719,3182;0,113951
720,2824;0,113057
721,2466;0,111846
722,2109;0,110433
723,1751;0,108999
724,1393;0,107703
725,1036;0,106616
726,0678;0,10572
727,0320;0,104949
727,9963;0,10423
728,9605;0,103517
729,9247;0,102794
730,8890;0,102067
731,8532;0,101345
732,8174;0,100641
733,7817;0,0999655
734,7459;0,0993294
735,7101;0,0987397
736,6744;0,098195
737,6386;0,097686
738,6028;0,0972002
739,5671;0,0967292
740,5313;0,096271
741,4955;0,0958282
742,4598;0,095401
743,4240;0,0949826
744,3882;0,0945582
745,3525;0,0941111
746,3167;0,0936303
747,2809;0,0931165
748,2452;0,0925826
749,2094;0,0920469
750,1736;0,091525
751,1379;0,0910234
752,1021;0,0905396
753,0663;0,0900678
754,0306;0,0896047
754,9948;0,0891518
755,9590;0,0887119
756,9233;0,0882842
757,8875;0,0878616
758,8517;0,0874337
759,8160;0,0869931
760,7802;0,0865405
761,7444;0,0860851
762,7087;0,0856401
763,6729;0,0852174
764,6371;0,0848232
765,6014;0,0844582
766,5656;0,0841196
767,5298;0,0838021
768,4941;0,0834999
769,4583;0,0832072
770,4225;0,0829206
771,3868;0,0826407
772,3510;0,0823725
773,3152;0,0821213
774,2795;0,0818879
775,2437;0,0816647
776,2079;0,0814355
777,1722;0,0811809
778,1364;0,0808843
779,1006;0,0805366
780,0649;0,080137
781,0291;0,0796909
781,9933;0,0792072
782,9576;0,0786969
783,9218;0,0781718
784,8860;0,0776445
785,8503;0,0771266
786,8145;0,0766276
787,7787;0,0761532
788,7430;0,0757056
789,7072;0,0752854
790,6714;0,0748931
791,6357;0,0745308
792,5999;0,0742017
793,5641;0,0739075
794,5284;0,073645
795,4926;0,0734037
796,4568;0,0731678
797,4211;0,0729229
798,3853;0,0726625
799,3495;0,0723932
800,3138;0,0721305
801,2780;0,0718905
802,2422;0,07168
803,2065;0,0714934
804,1707;0,0713185
805,1349;0,0711464
806,0992;0,0709784
807,0634;0,070825
808,0276;0,0706966
808,9919;0,0705941
809,9561;0,070507
810,9203;0,0704186
811,8846;0,070316
812,8488;0,0701955
813,8130;0,0700611
814,7773;0,0699184
815,7415;0,0697707
816,7057;0,0696202
817,6700;0,0694726
818,6342;0,069339
819,5984;0,0692313
820,5627;0,0691545
821,5269;0,0691015
822,4911;0,0690553
823,4554;0,0689983
824,4196;0,0689211
825,3839;0,068825
826,3481;0,0687166
827,3123;0,0686006
828,2766;0,0684753
829,2408;0,0683352
830,2050;0,0681756
831,1693;0,0679966
832,1335;0,0678026
833,0977;0,0675982
834,0620;0,0673849
835,0262;0,0671602
835,9904;0,0669198
836,9547;0,0666611
837,9189;0,0663857
838,8831;0,0661016
839,8474;0,0658214
840,8116;0,0655587
841,7758;0,0653217
842,7401;0,065109
843,7043;0,0649093
844,6685;0,0647082
845,6328;0,0644984
846,5970;0,0642866
847,5612;0,0640929
848,5255;0,0639413
849,4897;0,0638477
850,4539;0,0638122
851,4182;0,06382
852,3824;0,0638473
853,3466;0,0638694
854,3109;0,063865
855,2751;0,0638188
856,2393;0,0637246
857,2036;0,0635885
858,1678;0,0634307
859,1320;0,0632807
860,0963;0,0631669
861,0605;0,0631049
862,0247;0,0630923
862,9890;0,0631143
863,9532;0,0631546
864,9174;0,0632058
865,8817;0,063271
866,8459;0,0633573
867,8101;0,0634667
868,7744;0,063592
869,7386;0,0637201
870,7028;0,0638384
871,6671;0,0639409
872,6313;0,0640284
873,5955;0,0641058
874,5598;0,0641797
875,5240;0,0642575
876,4882;0,0643483
877,4525;0,0644635
878,4167;0,0646161
879,3809;0,0648187
880,3452;0,0650831
881,3094;0,0654199
882,2736;0,0658386
883,2379;0,0663454
884,2021;0,0669399
885,1663;0,0676136
886,1306;0,0683515
887,0948;0,069138
888,0590;0,0699622
889,0233;0,0708197
889,9875;0,0717072
890,9517;0,0726143
891,9160;0,0735159
892,8802;0,0743724
893,8444;0,075137
894,8087;0,0757673
895,7729;0,0762343
896,7371;0,0765259
897,7014;0,0766436
898,6656;0,0765964
899,6298;0,0763953
900,5941;0,0760512
901,5583;0,0755766
902,5225;0,0749883
903,4868;0,0743126
904,4510;0,0735878
905,4152;0,0728648
906,3795;0,0722016
907,3437;0,071652
908,3079;0,0712512
909,2722;0,0710051
910,2364;0,0708898
911,2007;0,0708637
912,1649;0,0708875
913,1292;0,0709406
914,0934;0,0710273
915,0576;0,0711693
916,0219;0,07139
916,9861;0,0716997
917,9503;0,0720875
918,9146;0,0725244
919,8788;0,0729721
920,8430;0,0733948
921,8073;0,0737686
922,7715;0,0740854
923,7357;0,0743518
924,7000;0,0745821
925,6642;0,0747903
926,6284;0,074983
927,5927;0,0751592
928,5569;0,075314
929,5211;0,0754451
930,4854;0,0755574
931,4496;0,0756618
932,4138;0,075771
933,3781;0,0758953
934,3423;0,0760416
935,3065;0,0762177
936,2708;0,076436
937,2350;0,0767152
938,1992;0,0770776
939,1635;0,0775416
940,1277;0,0781151
941,0919;0,0787932
942,0562;0,0795604
943,0204;0,0803971
943,9846;0,0812871
944,9489;0,0822216
945,9131;0,0832002
946,8773;0,0842282
947,8416;0,0853142
948,8058;0,0864682
949,7700;0,0876998
950,7343;0,0890153
951,6985;0,0904142
952,6627;0,0918856
953,6270;0,0934114
954,5912;0,0949736
955,5554;0,0965645
956,5197;0,0981921
957,4839;0,0998748
958,4481;0,10163
959,4124;0,103461
960,3766;0,105356
961,3408;0,107292
962,3051;0,109249
963,2693;0,11122
964,2335;0,113204
965,1978;0,115208
966,1620;0,117236
967,1262;0,119297
968,0905;0,121411
969,0547;0,123615
970,0189;0,125959
970,9832;0,128489
971,9474;0,131237
972,9116;0,134213
973,8759;0,137413
974,8401;0,140826
975,8043;0,144445
976,7686;0,148266
977,7328;0,152269
978,6970;0,156409
979,6613;0,160605
980,6255;0,164751
981,5897;0,168727
982,5540;0,172429
983,5182;0,175784
984,4824;0,178768
985,4467;0,181394
986,4109;0,183703
987,3751;0,185743
988,3394;0,187557
989,3036;0,189175
990,2678;0,190623
991,2321;0,191921
992,1963;0,193086
993,1605;0,194135
994,1248;0,195076
995,0890;0,195915
996,0532;0,196654
997,0175;0,197294
997,9817;0,197844
998,9459;0,198323
999,9102;0,198764
1000,8744;0,199213
1001,8386;0,199727
1002,8029;0,200365
1003,7671;0,201177
1004,7313;0,202198
1005,6956;0,203448
1006,6598;0,204935
1007,6240;0,206662
1008,5883;0,20863
1009,5525;0,210834
1010,5167;0,213253
1011,4810;0,215841
1012,4452;0,218531
1013,4094;0,221239
1014,3737;0,223885
1015,3379;0,226406
1016,3021;0,228767
1017,2664;0,230961
1018,2306;0,232996
1019,1948;0,23489
1020,1591;0,236657
1021,1233;0,238308
1022,0875;0,239854
1023,0518;0,241306
1024,0160;0,242677
1024,9802;0,243974
1025,9445;0,245194
1026,9087;0,246321
1027,8729;0,247324
1028,8372;0,248156
1029,8014;0,248753
1030,7656;0,249037
1031,7299;0,248919
1032,6941;0,248321
1033,6583;0,247205
1034,6226;0,245597
1035,5868;0,243599
1036,5510;0,241373
1037,5153;0,23911
1038,4795;0,236991
1039,4437;0,235151
1040,4080;0,233664
1041,3722;0,232542
1042,3364;0,231742
1043,3007;0,231187
1044,2649;0,230779
1045,2291;0,230422
1046,1934;0,230033
1047,1576;0,229549
1048,1218;0,228928
1049,0861;0,22814
1050,0503;0,227159
1051,0145;0,225958
1051,9788;0,224515
1052,9430;0,222822
1053,9072;0,22089
1054,8715;0,218738
1055,8357;0,216377
1056,7999;0,213795
1057,7642;0,210954
1058,7284;0,207806
1059,6926;0,204331
1060,6569;0,200562
1061,6211;0,196594
1062,5853;0,192571
1063,5496;0,188644
1064,5138;0,184931
1065,4780;0,181497
1066,4423;0,17835
1067,4065;0,175462
1068,3707;0,172794
1069,3350;0,170303
1070,2992;0,16795
1071,2634;0,165692
1072,2277;0,163475
1073,1919;0,161244
1074,1561;0,158947
1075,1204;0,156556
1076,0846;0,154072
1077,0488;0,151534
1078,0131;0,148999
1078,9773;0,146536
1079,9415;0,14421
1080,9058;0,142072
1081,8700;0,140157
1082,8342;0,138483
1083,7985;0,137053
1084,7627;0,135854
1085,7269;0,134859
1086,6912;0,134037
1087,6554;0,133358
1088,6196;0,132798
1089,5839;0,132343
1090,5481;0,131989
1091,5123;0,131737
1092,4766;0,131593
1093,4408;0,131559
1094,4050;0,13163
1095,3693;0,131794
1096,3335;0,13203
1097,2977;0,132307
1098,2620;0,132591
1099,2262;0,132853
1100,1904;0,133068
1101,1547;0,13322
1102,1189;0,133291
1103,0831;0,133267
1104,0474;0,133138
1105,0116;0,132901
1105,9758;0,132569
1106,9401;0,132162
1107,9043;0,131695
1108,8685;0,131164
1109,8328;0,130535
1110,7970;0,12975
1111,7612;0,128747
1112,7255;0,127492
1113,6897;0,126003
1114,6539;0,124348
1115,6182;0,122637
1116,5824;0,120979
1117,5466;0,119458
1118,5109;0,118102
1119,4751;0,116884
1120,4393;0,115729
1121,4036;0,114545
1122,3678;0,113242
1123,3320;0,111751
1124,2963;0,110038
1125,2605;0,108101
1126,2247;0,105966
1127,1890;0,103678
1128,1532;0,101295
1129,1174;0,0988755
1130,0817;0,0964684
1131,0459;0,0941094
1132,0101;0,0918207
1132,9744;0,0896196
1133,9386;0,0875298
1134,9028;0,0855892
1135,8671;0,0838481
1136,8313;0,0823578
1137,7955;0,0811555
1138,7598;0,0802531
1139,7240;0,0796366
1140,6882;0,0792739
1141,6525;0,0791255
1142,6167;0,0791514
1143,5809;0,0793139
1144,5452;0,0795769
1145,5094;0,0799082
1146,4736;0,0802851
1147,4379;0,0806995
1148,4021;0,0811577
1149,3663;0,081673
1150,3306;0,0822535
1151,2948;0,0828915
1152,2590;0,0835594
1153,2233;0,0842141
1154,1875;0,0848046
1155,1517;0,0852783
1156,1160;0,0855828
1157,0802;0,0856639
1158,0444;0,0854627
1159,0087;0,084916
1159,9729;0,0839618
1160,9371;0,08255
1161,9014;0,0806565
1162,8656;0,0782948
1163,8298;0,0755219
1164,7941;0,072435
1165,7583;0,0691591
1166,7225;0,0658296
1167,6868;0,062574
1168,6510;0,0594975
1169,6152;0,0566733
1170,5795;0,0541408
1171,5437;0,0519088
1172,5079;0,0499625
1173,4722;0,0482734
1174,4364;0,0468084
1175,4006;0,0455371
1176,3649;0,0444345
1177,3291;0,0434812
1178,2933;0,0426622
1179,2576;0,0419645
1180,2218;0,0413774
1181,1860;0,0408928
1182,1503;0,0405044
1183,1145;0,0402078
1184,0787;0,0399989
1185,0430;0,0398742
1186,0072;0,0398313
1186,9714;0,0398707
1187,9357;0,0399964
1188,8999;0,0402144
1189,8641;0,0405305
1190,8284;0,0409472
1191,7926;0,0414621
1192,7568;0,0420679
1193,7211;0,0427532
1194,6853;0,0435035
1195,6495;0,044302
1196,6138;0,0451292
1197,5780;0,0459646
1198,5422;0,0467895
1199,5065;0,0473318
1200,4707;0,0481345
1201,4349;0,0489109
1202,3992;0,049663
1203,3634;0,05039
1204,3276;0,0510858
1205,2919;0,0517414
1206,2561;0,0523524
1207,2203;0,0529253
1208,1846;0,0534814
1209,1488;0,0540518
1210,1130;0,0546696
1211,0773;0,0553602
1212,0415;0,0561368
1213,0057;0,0569996
1213,9700;0,0579398
1214,9342;0,0589433
1215,8984;0,0599929
1216,8627;0,0610671
1217,8269;0,0621409
1218,7911;0,063193
1219,7554;0,0642076
1220,7196;0,0651775
1221,6838;0,0661025
1222,6481;0,0669851
1223,6123;0,0678256
1224,5765;0,0686205
1225,5408;0,0693638
1226,5050;0,0700504
1227,4692;0,0706789
1228,4335;0,0712517
1229,3977;0,0717724
1230,3619;0,0722433
1231,3262;0,0726637
1232,2904;0,0730304
1233,2546;0,0733406
1234,2189;0,0735944
1235,1831;0,0737966
1236,1473;0,0739561
1237,1116;0,0740833
1238,0758;0,074186
1239,0400;0,074267
1240,0043;0,0743231
1240,9685;0,0743463
1241,9327;0,0743269
1242,8970;0,0742564
1243,8612;0,0741297
1244,8254;0,0739452
1245,7897;0,0737044
1246,7539;0,0734125
1247,7181;0,0730781
1248,6824;0,0727135
1249,6466;0,072333
1250,6108;0,0719503
1251,5751;0,0715759
1252,5393;0,0712157
1253,5035;0,0708708
1254,4678;0,0705387
1255,4320;0,0702131
1256,3962;0,0698841
1257,3605;0,0695385
1258,3247;0,0691623
1259,2889;0,0687447
1260,2532;0,0682806
1261,2174;0,0677719
1262,1816;0,0672237
1263,1459;0,066641
1264,1101;0,0660263
1265,0743;0,0653807
1266,0386;0,0647061
1267,0028;0,0640048
1267,9670;0,0632783
1268,9313;0,0625244
1269,8955;0,061737
1270,8597;0,0609092
1271,8240;0,0600386
1272,7882;0,0591316
1273,7524;0,0582048
1274,7167;0,057282
1275,6809;0,056388
1276,6451;0,0555417
1277,6094;0,0547502
1278,5736;0,0540068
1279,5378;0,0532951
1280,5021;0,0525983
1281,4663;0,051908
1282,4305;0,0512296
1283,3948;0,050579
1284,3590;0,0499757
1285,3232;0,0494351
1286,2875;0,0489653
1287,2517;0,048568
1288,2159;0,0482425
1289,1802;0,0479883
1290,1444;0,0478062
1291,1086;0,0476981
1292,0729;0,0476661
1293,0371;0,0477126
1294,0013;0,0478402
1294,9656;0,0480499
1295,9298;0,0483399
1296,8940;0,0487048
1297,8583;0,0491377
1298,8225;0,0496318
1299,7867;0,0501839
1300,7510;0,0507933
1301,7152;0,0514647
1302,6794;0,0522011
1303,6437;0,0530026
1304,6079;0,0538669
1305,5721;0,0547877
1306,5364;0,0557563
1307,5006;0,0567636
1308,4648;0,0578014
1309,4291;0,0588606
1310,3933;0,0599261
1311,3575;0,060973
1312,3218;0,0619661
1313,2860;0,0628655
1314,2502;0,0636336
1315,2145;0,0642365
1316,1787;0,0646404
1317,1429;0,064813
1318,1072;0,0647351
1319,0714;0,0644212
1320,0356;0,0639306
1320,9999;0,0633544
1321,9641;0,0627836
1322,9283;0,0622819
1323,8926;0,0618769
1324,8568;0,0615681
1325,8210;0,06134
1326,7853;0,061173
1327,7495;0,061047
1328,7137;0,060942
1329,6780;0,0608362
1330,6422;0,0607101
1331,6064;0,0605548
1332,5707;0,0603757
1333,5349;0,0601934
1334,4991;0,0600282
1335,4634;0,0598795
1336,4276;0,0597071
1337,3918;0,0594242
1338,3561;0,0589275
1339,3203;0,0581692
1340,2845;0,0572181
1341,2488;0,0562299
1342,2130;0,0553504
1343,1772;0,054651
1344,1415;0,0541358
1345,1057;0,0537768
1346,0699;0,0535425
1347,0342;0,0534101
1347,9984;0,0533707
1348,9626;0,0534272
1349,9269;0,0535856
1350,8911;0,0538444
1351,8553;0,0541878
1352,8196;0,0545886
1353,7838;0,0550193
1354,7480;0,0554655
1355,7123;0,055935
1356,6765;0,0564524
1357,6407;0,0570436
1358,6050;0,0577206
1359,5692;0,058468
1360,5334;0,0592274
