TITLE;
DATA TYPE;INFRARED SPECTRUM
ORIGIN;JASCO
OWNER;
DATE;25/03/20
TIME;13:07:54
SPECTROMETER/DATA SYSTEM;
LOCALE;9226
RESOLUTION;
DELTAX;0,964233
XUNITS;1/CM
YUNITS;ABSORBANCE
FIRSTX;  399,1927
LASTX; 4000,6047
NPOINTS;    3736
FIRSTY;     0,18672
MAXY;     0,26277
MINY;    -0,00448
XYDATA
399,1927;0,186722
400,1569;0,186938
401,1211;0,186264
402,0854;0,185163
403,0496;0,184082
404,0138;0,183427
404,9781;0,183528
405,9423;0,184528
406,9065;0,186283
407,8708;0,18839
408,8350;0,19036
409,7992;0,191825
410,7635;0,192664
411,7277;0,193018
412,6919;0,193199
413,6562;0,19353
414,6204;0,194244
415,5846;0,195471
416,5489;0,197241
417,5131;0,199411
418,4773;0,201553
419,4416;0,203098
420,4058;0,203813
421,3700;0,20391
422,3343;0,203672
423,2985;0,203223
424,2627;0,202574
425,2270;0,201752
426,1912;0,200884
427,1554;0,200188
428,1197;0,199887
429,0839;0,200122
430,0481;0,200909
431,0124;0,202113
431,9766;0,20347
432,9408;0,204647
433,9051;0,205339
434,8693;0,205388
435,8335;0,204845
436,7978;0,203959
437,7620;0,203055
438,7262;0,202403
439,6905;0,202139
440,6547;0,20226
441,6189;0,202643
442,5832;0,203056
443,5474;0,203194
444,5116;0,202795
445,4759;0,201773
446,4401;0,200293
447,4043;0,198712
448,3686;0,19744
449,3328;0,196771
450,2970;0,196769
451,2613;0,197248
452,2255;0,197891
453,1897;0,198431
454,1540;0,198772
455,1182;0,198961
456,0824;0,199077
457,0467;0,199096
458,0109;0,198863
458,9751;0,198224
459,9394;0,197181
460,9036;0,195917
461,8678;0,194677
462,8321;0,193651
463,7963;0,192926
464,7605;0,192483
465,7248;0,192222
466,6890;0,192034
467,6532;0,191863
468,6175;0,191742
469,5817;0,19176
470,5459;0,19199
471,5102;0,192409
472,4744;0,192855
473,4386;0,193109
474,4029;0,193029
475,3671;0,19264
476,3313;0,192107
477,2956;0,191645
478,2598;0,191439
479,2240;0,191594
480,1883;0,192118
481,1525;0,192933
482,1167;0,193905
483,0810;0,194866
484,0452;0,195662
485,0094;0,196208
485,9737;0,196538
486,9379;0,196793
487,9021;0,197138
488,8664;0,197662
489,8306;0,198323
490,7948;0,198951
491,7591;0,19934
492,7233;0,199375
493,6875;0,199107
494,6518;0,198721
495,6160;0,198425
496,5802;0,198348
497,5445;0,198523
498,5087;0,198917
499,4729;0,199481
500,4372;0,200163
501,4014;0,200886
502,3656;0,20153
503,3299;0,201961
504,2941;0,202101
505,2583;0,201976
506,2226;0,201717
507,1868;0,201499
508,1510;0,201466
509,1153;0,201674
510,0795;0,202094
511,0437;0,202669
512,0080;0,203368
512,9722;0,204208
513,9365;0,205217
514,9007;0,206373
515,8649;0,207551
516,8292;0,208538
517,7934;0,209118
518,7576;0,209205
519,7219;0,208913
520,6861;0,208484
521,6503;0,208145
522,6146;0,208009
523,5788;0,208051
524,5430;0,208143
525,5073;0,208126
526,4715;0,2079
527,4357;0,207472
528,4000;0,206938
529,3642;0,206414
530,3284;0,20598
531,2927;0,205672
532,2569;0,205492
533,2211;0,205423
534,1854;0,20543
535,1496;0,205459
536,1138;0,205442
537,0781;0,205317
538,0423;0,205057
539,0065;0,204692
539,9708;0,204313
540,9350;0,204035
541,8992;0,203951
542,8635;0,204095
543,8277;0,204427
544,7919;0,204852
545,7562;0,205266
546,7204;0,205596
547,6846;0,205826
548,6489;0,205985
549,6131;0,206122
550,5773;0,206283
551,5416;0,206502
552,5058;0,206806
553,4700;0,207213
554,4343;0,207721
555,3985;0,20828
556,3627;0,208777
557,3270;0,209056
558,2912;0,208962
559,2554;0,208401
560,2197;0,207386
561,1839;0,206043
562,1481;0,204577
563,1124;0,203209
564,0766;0,202104
565,0408;0,201323
566,0051;0,200819
566,9693;0,200473
567,9335;0,200156
568,8978;0,199798
569,8620;0,199414
570,8262;0,199083
571,7905;0,198883
572,7547;0,198846
573,7189;0,198935
574,6832;0,199069
575,6474;0,199168
576,6116;0,19919
577,5759;0,19914
578,5401;0,199046
579,5043;0,19893
580,4686;0,198791
581,4328;0,198613
582,3970;0,198379
583,3613;0,198092
584,3255;0,197771
585,2897;0,197457
586,2540;0,197207
587,2182;0,19709
588,1824;0,197156
589,1467;0,197408
590,1109;0,197767
591,0751;0,198087
592,0394;0,198215
593,0036;0,198073
593,9678;0,197704
594,9321;0,197235
595,8963;0,196786
596,8605;0,196397
597,8248;0,196017
598,7890;0,195557
599,7532;0,194968
600,7175;0,194284
601,6817;0,1936
602,6459;0,193005
603,6102;0,192527
604,5744;0,192124
605,5386;0,191722
606,5029;0,191258
607,4671;0,190705
608,4313;0,190065
609,3956;0,189356
610,3598;0,188612
611,3240;0,187892
612,2883;0,187278
613,2525;0,186846
614,2167;0,186607
615,1810;0,186462
616,1452;0,186203
617,1094;0,185594
618,0737;0,184495
619,0379;0,182947
620,0021;0,18115
620,9664;0,179353
621,9306;0,17774
622,8948;0,176385
623,8591;0,175261
624,8233;0,174246
625,7875;0,173349
626,7518;0,17253
627,7160;0,171783
628,6802;0,171113
629,6445;0,17052
630,6087;0,169982
631,5729;0,169467
632,5372;0,168941
633,5014;0,168383
634,4656;0,167795
635,4299;0,167201
636,3941;0,16664
637,3583;0,166142
638,3226;0,165719
639,2868;0,165357
640,2510;0,165021
641,2153;0,164677
642,1795;0,164309
643,1437;0,163922
644,1080;0,163538
645,0722;0,163169
646,0364;0,162803
647,0007;0,162409
647,9649;0,161955
648,9291;0,161435
649,8934;0,16089
650,8576;0,160396
651,8218;0,16003
652,7861;0,159841
653,7503;0,159826
654,7145;0,159929
655,6788;0,160059
656,6430;0,160126
657,6072;0,160085
658,5715;0,159958
659,5357;0,159797
660,4999;0,159619
661,4642;0,159345
662,4284;0,158798
663,3926;0,157775
664,3569;0,156183
665,3211;0,154209
666,2853;0,152425
667,2496;0,151538
668,2138;0,151631
669,1780;0,151945
670,1423;0,151945
671,1065;0,151568
672,0707;0,150731
673,0350;0,149363
673,9992;0,147576
674,9634;0,145627
675,9277;0,143767
676,8919;0,142118
677,8561;0,140659
678,8204;0,139323
679,7846;0,138074
680,7488;0,136915
681,7131;0,135863
682,6773;0,134911
683,6415;0,134046
684,6058;0,133271
685,5700;0,132605
686,5342;0,132056
687,4985;0,131597
688,4627;0,131179
689,4269;0,130745
690,3912;0,130281
691,3554;0,129818
692,3196;0,129398
693,2839;0,129037
694,2481;0,128715
695,2123;0,128386
696,1766;0,128005
697,1408;0,127544
698,1050;0,127001
699,0693;0,126395
700,0335;0,125764
700,9977;0,125154
701,9620;0,124608
702,9262;0,124141
703,8904;0,123719
704,8547;0,123296
705,8189;0,122814
706,7831;0,122238
707,7474;0,121569
708,7116;0,120846
709,6758;0,12012
710,6401;0,119427
711,6043;0,118772
712,5685;0,118138
713,5328;0,117509
714,4970;0,116892
715,4612;0,115393
716,4255;0,115064
717,3897;0,114841
718,3539;0,114593
719,3182;0,114131
720,2824;0,113312
721,2466;0,112127
722,2109;0,110717
723,1751;0,109288
724,1393;0,108008
725,1036;0,106939
726,0678;0,106056
727,0320;0,105288
727,9963;0,104573
728,9605;0,103885
729,9247;0,103224
730,8890;0,102592
731,8532;0,101982
732,8174;0,10138
733,7817;0,100779
734,7459;0,100193
735,7101;0,0996452
736,6744;0,0991532
737,6386;0,0987161
738,6028;0,0983114
739,5671;0,0979069
740,5313;0,0974755
741,4955;0,0970062
742,4598;0,0965042
743,4240;0,095983
744,3882;0,0954538
745,3525;0,094919
746,3167;0,0943739
747,2809;0,0938132
748,2452;0,0932382
749,2094;0,0926599
750,1736;0,0920949
751,1379;0,091558
752,1021;0,0910542
753,0663;0,0905764
754,0306;0,0901088
754,9948;0,0896346
755,9590;0,0891444
756,9233;0,088641
757,8875;0,0881388
758,8517;0,0876582
759,8160;0,0872165
760,7802;0,0868191
761,7444;0,0864551
762,7087;0,0860996
763,6729;0,0857249
764,6371;0,0853149
765,6014;0,0848754
766,5656;0,0844335
767,5298;0,084024
768,4941;0,0836705
769,4583;0,0833721
770,4225;0,0831052
771,3868;0,082839
772,3510;0,0825545
773,3152;0,082255
774,2795;0,081959
775,2437;0,0816845
776,2079;0,0814329
777,1722;0,0811872
778,1364;0,0809223
779,1006;0,0806205
780,0649;0,0802801
781,0291;0,0799118
781,9933;0,0795276
782,9576;0,0791315
783,9218;0,078719
784,8860;0,078285
785,8503;0,0778325
786,8145;0,0773758
787,7787;0,0769344
788,7430;0,0765248
789,7072;0,0761536
790,6714;0,0758192
791,6357;0,0755174
792,5999;0,0752474
793,5641;0,0750108
794,5284;0,0748073
795,4926;0,0746274
796,4568;0,0744526
797,4211;0,0742619
798,3853;0,074043
799,3495;0,0738001
800,3138;0,0735527
801,2780;0,0733248
802,2422;0,073132
803,2065;0,0729741
804,1707;0,0728375
805,1349;0,0727061
806,0992;0,0725728
807,0634;0,0724433
808,0276;0,0723304
808,9919;0,0722427
809,9561;0,0721749
810,9203;0,0721077
811,8846;0,0720169
812,8488;0,0718855
813,8130;0,0717121
814,7773;0,0715103
815,7415;0,0713
816,7057;0,0710974
817,6700;0,0709091
818,6342;0,0707339
819,5984;0,0705695
820,5627;0,0704184
821,5269;0,0702892
822,4911;0,0701916
823,4554;0,070128
824,4196;0,070089
825,3839;0,0700543
826,3481;0,0700005
827,3123;0,0699114
828,2766;0,0697845
829,2408;0,0696307
830,2050;0,0694675
831,1693;0,0693097
832,1335;0,0691623
833,0977;0,0690195
834,0620;0,0688676
835,0262;0,0686916
835,9904;0,0684804
836,9547;0,0682316
837,9189;0,0679527
838,8831;0,0676597
839,8474;0,0673719
840,8116;0,0671045
841,7758;0,0668624
842,7401;0,0666393
843,7043;0,0664238
844,6685;0,0662088
845,6328;0,0659975
846,5970;0,0658015
847,5612;0,0656333
848,5255;0,0654971
849,4897;0,0653877
850,4539;0,0652949
851,4182;0,0652116
852,3824;0,0651361
853,3466;0,065067
854,3109;0,0649967
855,2751;0,0649103
856,2393;0,0647924
857,2036;0,0646394
858,1678;0,0644649
859,1320;0,0642954
860,0963;0,0641555
861,0605;0,0640552
862,0247;0,0639872
862,9890;0,0639359
863,9532;0,0638926
864,9174;0,0638639
865,8817;0,0638695
866,8459;0,0639291
867,8101;0,0640492
868,7744;0,0642169
869,7386;0,0644044
870,7028;0,06458
871,6671;0,0647196
872,6313;0,0648138
873,5955;0,0648688
874,5598;0,0649042
875,5240;0,0649468
876,4882;0,0650247
877,4525;0,0651597
878,4167;0,0653613
879,3809;0,065626
880,3452;0,0659414
881,3094;0,0662958
882,2736;0,0666864
883,2379;0,0671227
884,2021;0,0676211
885,1663;0,0681963
886,1306;0,068854
887,0948;0,0695884
888,0590;0,0703867
889,0233;0,0712334
889,9875;0,0721129
890,9517;0,0730079
891,9160;0,0738951
892,8802;0,0747431
893,8444;0,0755126
894,8087;0,0761615
895,7729;0,0766505
896,7371;0,0769502
897,7014;0,077045
898,6656;0,0769357
899,6298;0,0766369
900,5941;0,0761721
901,5583;0,0755684
902,5225;0,0748544
903,4868;0,0740632
904,4510;0,0732378
905,4152;0,0724317
906,3795;0,0717025
907,3437;0,071097
908,3079;0,0706366
909,2722;0,070312
910,2364;0,0700906
911,2007;0,0699332
912,1649;0,0698117
913,1292;0,0697182
914,0934;0,0696626
915,0576;0,0696623
916,0219;0,0697307
916,9861;0,06987
917,9503;0,0700694
918,9146;0,0703084
919,8788;0,0705619
920,8430;0,0708073
921,8073;0,0710297
922,7715;0,071225
923,7357;0,0713994
924,7000;0,0715639
925,6642;0,0717281
926,6284;0,0718967
927,5927;0,072069
928,5569;0,0722426
929,5211;0,0724163
930,4854;0,0725915
931,4496;0,0727704
932,4138;0,0729556
933,3781;0,0731499
934,3423;0,0733596
935,3065;0,0735958
936,2708;0,0738735
937,2350;0,0742082
938,1992;0,0746118
939,1635;0,0750909
940,1277;0,0756475
941,0919;0,0762805
942,0562;0,0769871
943,0204;0,0777618
943,9846;0,0785967
944,9489;0,0794843
945,9131;0,0804205
946,8773;0,0814083
947,8416;0,0824562
948,8058;0,083574
949,7700;0,0847674
950,7343;0,0860356
951,6985;0,0873726
952,6627;0,0887722
953,6270;0,0902307
954,5912;0,0917482
955,5554;0,0933255
956,5197;0,0949617
957,4839;0,0966518
958,4481;0,0983868
959,4124;0,100155
960,3766;0,101946
961,3408;0,103752
962,3051;0,105568
963,2693;0,107395
964,2335;0,109232
965,1978;0,111084
966,1620;0,112952
967,1262;0,114845
968,0905;0,116783
969,0547;0,118799
970,0189;0,120939
970,9832;0,123249
971,9474;0,125768
972,9116;0,128518
973,8759;0,131508
974,8401;0,134735
975,8043;0,138195
976,7686;0,141881
977,7328;0,145784
978,6970;0,149877
979,6613;0,154108
980,6255;0,158396
981,5897;0,162635
982,5540;0,166702
983,5182;0,17049
984,4824;0,173922
985,4467;0,176977
986,4109;0,179681
987,3751;0,182097
988,3394;0,184288
989,3036;0,186294
990,2678;0,188121
991,2321;0,189751
992,1963;0,191164
993,1605;0,192364
994,1248;0,193387
995,0890;0,194293
996,0532;0,195142
997,0175;0,19598
997,9817;0,19683
998,9459;0,197694
999,9102;0,198574
1000,8744;0,199484
1001,8386;0,200454
1002,8029;0,201527
1003,7671;0,202746
1004,7313;0,204148
1005,6956;0,205758
1006,6598;0,207595
1007,6240;0,209678
1008,5883;0,212028
1009,5525;0,214659
1010,5167;0,217563
1011,4810;0,220701
1012,4452;0,223992
1013,4094;0,22733
1014,3737;0,230606
1015,3379;0,23373
1016,3021;0,236659
1017,2664;0,239386
1018,2306;0,24193
1019,1948;0,244312
1020,1591;0,246546
1021,1233;0,248639
1022,0875;0,2506
1023,0518;0,252447
1024,0160;0,254203
1024,9802;0,255884
1025,9445;0,257485
1026,9087;0,258978
1027,8729;0,260314
1028,8372;0,261434
1029,8014;0,26227
1030,7656;0,262743
1031,7299;0,26277
1032,6941;0,26227
1033,6583;0,2612
1034,6226;0,259576
1035,5868;0,257499
1036,5510;0,255136
1037,5153;0,252697
1038,4795;0,250385
1039,4437;0,248357
1040,4080;0,246705
1041,3722;0,245453
1042,3364;0,244566
1043,3007;0,243966
1044,2649;0,243553
1045,2291;0,243216
1046,1934;0,242858
1047,1576;0,242402
1048,1218;0,241793
1049,0861;0,240998
1050,0503;0,239987
1051,0145;0,238738
1051,9788;0,237229
1052,9430;0,235454
1053,9072;0,233428
1054,8715;0,231174
1055,8357;0,228711
1056,7999;0,226028
1057,7642;0,223082
1058,7284;0,219814
1059,6926;0,216186
1060,6569;0,212221
1061,6211;0,208008
1062,5853;0,203696
1063,5496;0,199442
1064,5138;0,19538
1065,4780;0,191589
1066,4423;0,188095
1067,4065;0,184883
1068,3707;0,181917
1069,3350;0,179151
1070,2992;0,176537
1071,2634;0,174026
1072,2277;0,171572
1073,1919;0,169138
1074,1561;0,166698
1075,1204;0,164238
1076,0846;0,161757
1077,0488;0,159271
1078,0131;0,156808
1078,9773;0,15442
1079,9415;0,152167
1080,9058;0,150112
1081,8700;0,148304
1082,8342;0,146763
1083,7985;0,145483
1084,7627;0,144433
1085,7269;0,143574
1086,6912;0,142862
1087,6554;0,142264
1088,6196;0,141756
1089,5839;0,141331
1090,5481;0,140987
1091,5123;0,140732
1092,4766;0,140571
1093,4408;0,140503
1094,4050;0,140517
1095,3693;0,140592
1096,3335;0,140705
1097,2977;0,140838
1098,2620;0,140979
1099,2262;0,141125
1100,1904;0,141267
1101,1547;0,141393
1102,1189;0,141479
1103,0831;0,141495
1104,0474;0,141416
1105,0116;0,141231
1105,9758;0,140939
1106,9401;0,14055
1107,9043;0,140068
1108,8685;0,139484
1109,8328;0,138772
1110,7970;0,137899
1111,7612;0,136835
1112,7255;0,135574
1113,6897;0,134141
1114,6539;0,132599
1115,6182;0,131031
1116,5824;0,129519
1117,5466;0,128123
1118,5109;0,126858
1119,4751;0,125692
1120,4393;0,124556
1121,4036;0,123363
1122,3678;0,122031
1123,3320;0,120501
1124,2963;0,118737
1125,2605;0,116733
1126,2247;0,114502
1127,1890;0,112075
1128,1532;0,109498
1129,1174;0,106827
1130,0817;0,104126
1131,0459;0,101455
1132,0101;0,0988704
1132,9744;0,0964212
1133,9386;0,0941499
1134,9028;0,0920931
1135,8671;0,09028
1136,8313;0,0887297
1137,7955;0,0874503
1138,7598;0,0864398
1139,7240;0,0856886
1140,6882;0,085182
1141,6525;0,0848998
1142,6167;0,0848149
1143,5809;0,0848936
1144,5452;0,0850997
1145,5094;0,0854012
1146,4736;0,0857767
1147,4379;0,0862181
1148,4021;0,0867255
1149,3663;0,0872998
1150,3306;0,087934
1151,2948;0,0886083
1152,2590;0,0892909
1153,2233;0,0899416
1154,1875;0,090516
1155,1517;0,0909676
1156,1160;0,091246
1157,0802;0,0912938
1158,0444;0,091046
1159,0087;0,0904334
1159,9729;0,0893922
1160,9371;0,0878781
1161,9014;0,0858793
1162,8656;0,0834243
1163,8298;0,080581
1164,7941;0,0774473
1165,7583;0,0741386
1166,7225;0,0707756
1167,6868;0,0674728
1168,6510;0,0643296
1169,6152;0,0614212
1170,5795;0,0587924
1171,5437;0,0564566
1172,5079;0,054402
1173,4722;0,0526029
1174,4364;0,0510316
1175,4006;0,0496658
1176,3649;0,0484893
1177,3291;0,0474891
1178,2933;0,0466516
1179,2576;0,0459627
1180,2218;0,0454099
1181,1860;0,0449838
1182,1503;0,0446776
1183,1145;0,0444829
1184,0787;0,0443878
1185,0430;0,0443776
1186,0072;0,0444389
1186,9714;0,0445658
1187,9357;0,0447613
1188,8999;0,0450359
1189,8641;0,0454004
1190,8284;0,0458595
1191,7926;0,0464083
1192,7568;0,0470323
1193,7211;0,0477119
1194,6853;0,0484275
1195,6495;0,0491628
1196,6138;0,0499059
1197,5780;0,0506487
1198,5422;0,0513841
1199,5065;0,0517621
1200,4707;0,0525038
1201,4349;0,0532236
1202,3992;0,0539205
1203,3634;0,0545978
1204,3276;0,0552623
1205,2919;0,0559208
1206,2561;0,0565792
1207,2203;0,0572437
1208,1846;0,0579227
1209,1488;0,058629
1210,1130;0,0593783
1211,0773;0,0601849
1212,0415;0,0610574
1213,0057;0,061996
1213,9700;0,0629932
1214,9342;0,064037
1215,8984;0,065114
1216,8627;0,0662075
1217,8269;0,0672982
1218,7911;0,0683695
1219,7554;0,069408
1220,7196;0,0704053
1221,6838;0,0713576
1222,6481;0,0722613
1223,6123;0,0731102
1224,5765;0,0738946
1225,5408;0,0746052
1226,5050;0,0752384
1227,4692;0,0757995
1228,4335;0,0763007
1229,3977;0,0767541
1230,3619;0,0771658
1231,3262;0,0775334
1232,2904;0,0778492
1233,2546;0,0781065
1234,2189;0,0783053
1235,1831;0,0784533
1236,1473;0,0785635
1237,1116;0,0786492
1238,0758;0,0787188
1239,0400;0,0787738
1240,0043;0,0788083
1240,9685;0,0788115
1241,9327;0,0787714
1242,8970;0,0786783
1243,8612;0,0785274
1244,8254;0,0783188
1245,7897;0,0780566
1246,7539;0,0777469
1247,7181;0,077398
1248,6824;0,0770202
1249,6466;0,0766261
1250,6108;0,0762293
1251,5751;0,0758422
1252,5393;0,0754734
1253,5035;0,0751269
1254,4678;0,074802
1255,4320;0,0744938
1256,3962;0,0741932
1257,3605;0,0738865
1258,3247;0,0735572
1259,2889;0,0731888
1260,2532;0,0727702
1261,2174;0,0722981
1262,1816;0,0717771
1263,1459;0,0712151
1264,1101;0,0706185
1265,0743;0,0699902
1266,0386;0,0693285
1267,0028;0,0686283
1267,9670;0,0678819
1268,9313;0,06708
1269,8955;0,0662148
1270,8597;0,0652833
1271,8240;0,0642917
1272,7882;0,0632579
1273,7524;0,06221
1274,7167;0,0611812
1275,6809;0,0602024
1276,6451;0,0592933
1277,6094;0,0584555
1278,5736;0,0576721
1279,5378;0,0569152
1280,5021;0,0561603
1281,4663;0,0554009
1282,4305;0,0546532
1283,3948;0,0539485
1284,3590;0,0533174
1285,3232;0,052775
1286,2875;0,0523154
1287,2517;0,0519188
1288,2159;0,0515657
1289,1802;0,0512501
1290,1444;0,0509837
1291,1086;0,0507894
1292,0729;0,0506894
1293,0371;0,0506956
1294,0013;0,0508063
1294,9656;0,051009
1295,9298;0,0512867
1296,8940;0,0516244
1297,8583;0,0520128
1298,8225;0,0524488
1299,7867;0,0529346
1300,7510;0,0534738
1301,7152;0,0540741
1302,6794;0,0547383
1303,6437;0,055463
1304,6079;0,0562413
1305,5721;0,0570641
1306,5364;0,0579261
1307,5006;0,0588308
1308,4648;0,0597875
1309,4291;0,0608018
1310,3933;0,0618622
1311,3575;0,0629342
1312,3218;0,0639662
1313,2860;0,0649079
1314,2502;0,0657245
1315,2145;0,0663959
1316,1787;0,0669016
1317,1429;0,0672082
1318,1072;0,0672774
1319,0714;0,0670958
1320,0356;0,0667025
1320,9999;0,0661873
1321,9641;0,0656557
1322,9283;0,0651888
1323,8926;0,0648228
1324,8568;0,0645536
1325,8210;0,064355
1326,7853;0,0641965
1327,7495;0,0640524
1328,7137;0,0639017
1329,6780;0,0637253
1330,6422;0,0635106
1331,6064;0,0632635
1332,5707;0,0630151
1333,5349;0,0628197
1334,4991;0,0627288
1335,4634;0,0627555
1336,4276;0,0628387
1337,3918;0,0628267
1338,3561;0,0625178
1339,3203;0,0617806
1340,2845;0,0606733
1341,2488;0,0594214
1342,2130;0,0582698
1343,1772;0,0573627
1344,1415;0,0567323
1345,1057;0,0563429
1346,0699;0,0561349
1347,0342;0,0560514
1347,9984;0,0560559
1348,9626;0,0561384
1349,9269;0,0563069
1350,8911;0,0565717
1351,8553;0,0569294
1352,8196;0,0573585
1353,7838;0,0578274
1354,7480;0,0583128
1355,7123;0,0588175
1356,6765;0,0593735
1357,6407;0,0600258
1358,6050;0,0608068
1359,5692;0,0617073
