TITLE;
DATA TYPE;INFRARED SPECTRUM
ORIGIN;JASCO
OWNER;
DATE;25/03/20
TIME;13:12:47
SPECTROMETER/DATA SYSTEM;
LOCALE;9226
RESOLUTION;
DELTAX;0,964233
XUNITS;1/CM
YUNITS;ABSORBANCE
FIRSTX;  399,1927
LASTX; 4000,6047
NPOINTS;    3736
FIRSTY;     0,22641
MAXY;     0,31384
MINY;    -0,00667
XYDATA
399,1927;0,226412
400,1569;0,226735
401,1211;0,22696
402,0854;0,227047
403,0496;0,226886
404,0138;0,226429
404,9781;0,225794
405,9423;0,225262
406,9065;0,22514
407,8708;0,225578
408,8350;0,226496
409,7992;0,227675
410,7635;0,228909
411,7277;0,230108
412,6919;0,231305
413,6562;0,232586
414,6204;0,234028
415,5846;0,235678
416,5489;0,237539
417,5131;0,239495
418,4773;0,241227
419,4416;0,242338
420,4058;0,24272
421,3700;0,242628
422,3343;0,242383
423,2985;0,242185
424,2627;0,242094
425,2270;0,242069
426,1912;0,24201
427,1554;0,241835
428,1197;0,241562
429,0839;0,241339
430,0481;0,241378
431,0124;0,241837
431,9766;0,24269
432,9408;0,243699
433,9051;0,244513
434,8693;0,244854
435,8335;0,244667
436,7978;0,244119
437,7620;0,243457
438,7262;0,242845
439,6905;0,242303
440,6547;0,241776
441,6189;0,241231
442,5832;0,240708
443,5474;0,240272
444,5116;0,239924
445,4759;0,239562
446,4401;0,239042
447,4043;0,238277
448,3686;0,23729
449,3328;0,236195
450,2970;0,235153
451,2613;0,234312
452,2255;0,233776
453,1897;0,233599
454,1540;0,233791
455,1182;0,234297
456,0824;0,234962
457,0467;0,235495
458,0109;0,235551
458,9751;0,23493
459,9394;0,233727
460,9036;0,23227
461,8678;0,230931
462,8321;0,229984
463,7963;0,229556
464,7605;0,229606
465,7248;0,229953
466,6890;0,230363
467,6532;0,230665
468,6175;0,230819
469,5817;0,230884
470,5459;0,230943
471,5102;0,231018
472,4744;0,231054
473,4386;0,230967
474,4029;0,230716
475,3671;0,230332
476,3313;0,22989
477,2956;0,22948
478,2598;0,229207
479,2240;0,229185
480,1883;0,229518
481,1525;0,23025
482,1167;0,231311
483,0810;0,232498
484,0452;0,233533
485,0094;0,234197
485,9737;0,234451
486,9379;0,234449
487,9021;0,234429
488,8664;0,234571
489,8306;0,234915
490,7948;0,235363
491,7591;0,235748
492,7233;0,235942
493,6875;0,235927
494,6518;0,235789
495,6160;0,235647
496,5802;0,235586
497,5445;0,235632
498,5087;0,235779
499,4729;0,236022
500,4372;0,236377
501,4014;0,236858
502,3656;0,237451
503,3299;0,238091
504,2941;0,238685
505,2583;0,239153
506,2226;0,239454
507,1868;0,239602
508,1510;0,239655
509,1153;0,239704
510,0795;0,239853
511,0437;0,240196
512,0080;0,240793
512,9722;0,241649
513,9365;0,242699
514,9007;0,243804
515,8649;0,244784
516,8292;0,245465
517,7934;0,245763
518,7576;0,24573
519,7219;0,245527
520,6861;0,245335
521,6503;0,245265
522,6146;0,245329
523,5788;0,245459
524,5430;0,24554
525,5073;0,245457
526,4715;0,245149
527,4357;0,24464
528,4000;0,244025
529,3642;0,243424
530,3284;0,242938
531,2927;0,242622
532,2569;0,242466
533,2211;0,242394
534,1854;0,242285
535,1496;0,242021
536,1138;0,241544
537,0781;0,240891
538,0423;0,240179
539,0065;0,239557
539,9708;0,239144
540,9350;0,238992
541,8992;0,239084
542,8635;0,239352
543,8277;0,239707
544,7919;0,24006
545,7562;0,240337
546,7204;0,240499
547,6846;0,240559
548,6489;0,240578
549,6131;0,240635
550,5773;0,240783
551,5416;0,241025
552,5058;0,241321
553,4700;0,241615
554,4343;0,241873
555,3985;0,24208
556,3627;0,242215
557,3270;0,24222
558,2912;0,241992
559,2554;0,241428
560,2197;0,240481
561,1839;0,23921
562,1481;0,237777
563,1124;0,236387
564,0766;0,235211
565,0408;0,234322
566,0051;0,233687
566,9693;0,233202
567,9335;0,23276
568,8978;0,23231
569,8620;0,23187
570,8262;0,231506
571,7905;0,23127
572,7547;0,231166
573,7189;0,231146
574,6832;0,231132
575,6474;0,231061
576,6116;0,230911
577,5759;0,230706
578,5401;0,230483
579,5043;0,230272
580,4686;0,230076
581,4328;0,229877
582,3970;0,229657
583,3613;0,229405
584,3255;0,229125
585,2897;0,228841
586,2540;0,228593
587,2182;0,228426
588,1824;0,22838
589,1467;0,228456
590,1109;0,228603
591,0751;0,22872
592,0394;0,228699
593,0036;0,228473
593,9678;0,228053
594,9321;0,227507
595,8963;0,226913
596,8605;0,226306
597,8248;0,225677
598,7890;0,224999
599,7532;0,224269
600,7175;0,223534
601,6817;0,222873
602,6459;0,222347
603,6102;0,221961
604,5744;0,221653
605,5386;0,221325
606,5029;0,220879
607,4671;0,220253
608,4313;0,219437
609,3956;0,218471
610,3598;0,217441
611,3240;0,216459
612,2883;0,215645
613,2525;0,215072
614,2167;0,214728
615,1810;0,214484
616,1452;0,214112
617,1094;0,213378
618,0737;0,212153
619,0379;0,210489
620,0021;0,208587
620,9664;0,206687
621,9306;0,204969
622,8948;0,203508
623,8591;0,202286
624,8233;0,201185
625,7875;0,200225
626,7518;0,199355
627,7160;0,19855
628,6802;0,1978
629,6445;0,197097
630,6087;0,19643
631,5729;0,195787
632,5372;0,195156
633,5014;0,194533
634,4656;0,193912
635,4299;0,193292
636,3941;0,192667
637,3583;0,192036
638,3226;0,191407
639,2868;0,1908
640,2510;0,190239
641,2153;0,189737
642,1795;0,189285
643,1437;0,188847
644,1080;0,188384
645,0722;0,187865
646,0364;0,187291
647,0007;0,186685
647,9649;0,186079
648,9291;0,185501
649,8934;0,184967
650,8576;0,184486
651,8218;0,18407
652,7861;0,183738
653,7503;0,183501
654,7145;0,183347
655,6788;0,183242
656,6430;0,18314
657,6072;0,183027
658,5715;0,182929
659,5357;0,182887
660,4999;0,182877
661,4642;0,18276
662,4284;0,18229
663,3926;0,181208
664,3569;0,179383
665,3211;0,176988
666,2853;0,174609
667,2496;0,173032
668,2138;0,172515
669,1780;0,172505
670,1423;0,172505
671,1065;0,172287
672,0707;0,171585
673,0350;0,170241
673,9992;0,168359
674,9634;0,166236
675,9277;0,164176
676,8919;0,162338
677,8561;0,16071
678,8204;0,159213
679,7846;0,157804
680,7488;0,156494
681,7131;0,155315
682,6773;0,154275
683,6415;0,153365
684,6058;0,152584
685,5700;0,151944
686,5342;0,151446
687,4985;0,15105
688,4627;0,150683
689,4269;0,150265
690,3912;0,149767
691,3554;0,149227
692,3196;0,148718
693,2839;0,148297
694,2481;0,147974
695,2123;0,147712
696,1766;0,147445
697,1408;0,147112
698,1050;0,146671
699,0693;0,146115
700,0335;0,145468
700,9977;0,144774
701,9620;0,144091
702,9262;0,143464
703,8904;0,142896
704,8547;0,142379
705,8189;0,141875
706,7831;0,141338
707,7474;0,140736
708,7116;0,14006
709,6758;0,139326
710,6401;0,138556
711,6043;0,137773
712,5685;0,136989
713,5328;0,136215
714,4970;0,135469
715,4612;0,133758
716,4255;0,133332
717,3897;0,133013
718,3539;0,132673
719,3182;0,132138
720,2824;0,13128
721,2466;0,130092
722,2109;0,128694
723,1751;0,127262
724,1393;0,125937
725,1036;0,124783
726,0678;0,123794
727,0320;0,122929
727,9963;0,122144
728,9605;0,121399
729,9247;0,120663
730,8890;0,119913
731,8532;0,119139
732,8174;0,118359
733,7817;0,11761
734,7459;0,11693
735,7101;0,116337
736,6744;0,115818
737,6386;0,115336
738,6028;0,114852
739,5671;0,114335
740,5313;0,113774
741,4955;0,113171
742,4598;0,112539
743,4240;0,111891
744,3882;0,111242
745,3525;0,110607
746,3167;0,109995
747,2809;0,109405
748,2452;0,108833
749,2094;0,108267
750,1736;0,107699
751,1379;0,107124
752,1021;0,106541
753,0663;0,105952
754,0306;0,105363
754,9948;0,104779
755,9590;0,104206
756,9233;0,10365
757,8875;0,103116
758,8517;0,102604
759,8160;0,102113
760,7802;0,101639
761,7444;0,101178
762,7087;0,100733
763,6729;0,100306
764,6371;0,099902
765,6014;0,0995216
766,5656;0,09916
767,5298;0,0988082
768,4941;0,098457
769,4583;0,0981007
770,4225;0,0977389
771,3868;0,097375
772,3510;0,0970139
773,3152;0,0966608
774,2795;0,0963206
775,2437;0,0959977
776,2079;0,095694
777,1722;0,0954046
778,1364;0,0951152
779,1006;0,0948031
780,0649;0,0944445
781,0291;0,0940238
781,9933;0,0935401
782,9576;0,0930077
783,9218;0,0924486
784,8860;0,0918848
785,8503;0,0913315
786,8145;0,0907974
787,7787;0,0902878
788,7430;0,0898086
789,7072;0,0893676
790,6714;0,0889733
791,6357;0,0886317
792,5999;0,088343
793,5641;0,0880989
794,5284;0,087882
795,4926;0,0876695
796,4568;0,0874407
797,4211;0,087186
798,3853;0,0869121
799,3495;0,0866391
800,3138;0,08639
801,2780;0,0861779
802,2422;0,0860004
803,2065;0,0858418
804,1707;0,0856842
805,1349;0,0855164
806,0992;0,0853382
807,0634;0,0851571
808,0276;0,0849824
808,9919;0,0848209
809,9561;0,0846745
810,9203;0,0845395
811,8846;0,0844067
812,8488;0,0842625
813,8130;0,084093
814,7773;0,0838916
815,7415;0,0836651
816,7057;0,0834328
817,6700;0,0832184
818,6342;0,0830374
819,5984;0,0828897
820,5627;0,0827623
821,5269;0,0826397
822,4911;0,0825161
823,4554;0,0823998
824,4196;0,0823069
825,3839;0,082249
826,3481;0,082223
827,3123;0,0822097
828,2766;0,0821814
829,2408;0,0821138
830,2050;0,0819948
831,1693;0,0818276
832,1335;0,0816256
833,0977;0,0814049
834,0620;0,0811764
835,0262;0,0809417
835,9904;0,0806944
836,9547;0,0804253
837,9189;0,0801306
838,8831;0,0798173
839,8474;0,079503
840,8116;0,0792097
841,7758;0,0789521
842,7401;0,0787312
843,7043;0,078534
844,6685;0,0783435
845,6328;0,0781515
846,5970;0,0779658
847,5612;0,0778074
848,5255;0,0776981
849,4897;0,0776467
850,4539;0,0776428
851,4182;0,0776612
852,3824;0,077674
853,3466;0,0776612
854,3109;0,0776152
855,2751;0,0775378
856,2393;0,077435
857,2036;0,0773131
858,1678;0,0771799
859,1320;0,0770463
860,0963;0,0769259
861,0605;0,0768315
862,0247;0,0767695
862,9890;0,0767379
863,9532;0,0767293
864,9174;0,0767385
865,8817;0,0767678
866,8459;0,0768269
867,8101;0,076927
868,7744;0,0770717
869,7386;0,077251
870,7028;0,077443
871,6671;0,077623
872,6313;0,0777749
873,5955;0,0778985
874,5598;0,0780088
875,5240;0,0781282
876,4882;0,0782757
877,4525;0,0784619
878,4167;0,0786899
879,3809;0,0789631
880,3452;0,0792921
881,3094;0,0796965
882,2736;0,0801994
883,2379;0,0808185
884,2021;0,0815585
885,1663;0,0824104
886,1306;0,0833577
887,0948;0,0843836
888,0590;0,0854767
889,0233;0,0866291
889,9875;0,0878306
890,9517;0,0890601
891,9160;0,0902813
892,8802;0,091443
893,8444;0,092486
894,8087;0,0933519
895,7729;0,0939919
896,7371;0,0943729
897,7014;0,0944795
898,6656;0,0943131
899,6298;0,0938887
900,5941;0,0932318
901,5583;0,0923758
902,5225;0,0913625
903,4868;0,0902443
904,4510;0,0890855
905,4152;0,0879598
906,3795;0,0869417
907,3437;0,0860914
908,3079;0,0854407
909,2722;0,0849857
910,2364;0,084693
911,2007;0,0845171
912,1649;0,0844207
913,1292;0,0843885
914,0934;0,0844273
915,0576;0,0845538
916,0219;0,084779
916,9861;0,0850973
917,9503;0,0854857
918,9146;0,0859112
919,8788;0,0863413
920,8430;0,0867529
921,8073;0,087136
922,7715;0,0874931
923,7357;0,0878349
924,7000;0,088173
925,6642;0,0885135
926,6284;0,0888534
927,5927;0,0891827
928,5569;0,0894914
929,5211;0,0897764
930,4854;0,0900447
931,4496;0,090309
932,4138;0,0905812
933,3781;0,0908684
934,3423;0,0911748
935,3065;0,0915097
936,2708;0,0918929
937,2350;0,092353
938,1992;0,0929184
939,1635;0,0936048
940,1277;0,0944091
941,0919;0,095312
942,0562;0,0962898
943,0204;0,0973261
943,9846;0,0984196
944,9489;0,0995821
945,9131;0,10083
946,8773;0,102175
947,8416;0,10362
948,8058;0,105159
949,7700;0,106786
950,7343;0,108501
951,6985;0,110308
952,6627;0,112216
953,6270;0,114222
954,5912;0,116313
955,5554;0,118464
956,5197;0,120657
957,4839;0,12288
958,4481;0,125136
959,4124;0,127434
960,3766;0,129777
961,3408;0,132156
962,3051;0,134556
963,2693;0,136959
964,2335;0,139359
965,1978;0,141761
966,1620;0,144178
967,1262;0,146632
968,0905;0,149152
969,0547;0,15177
970,0189;0,15453
970,9832;0,157471
971,9474;0,160628
972,9116;0,164027
973,8759;0,16768
974,8401;0,171595
975,8043;0,175773
976,7686;0,18021
977,7328;0,184887
978,6970;0,189767
979,6613;0,194784
980,6255;0,199844
981,5897;0,204834
982,5540;0,209626
983,5182;0,214104
984,4824;0,218176
985,4467;0,221794
986,4109;0,224958
987,3751;0,227701
988,3394;0,23008
989,3036;0,232153
990,2678;0,233962
991,2321;0,23554
992,1963;0,236908
993,1605;0,238085
994,1248;0,239102
995,0890;0,239994
996,0532;0,240805
997,0175;0,241576
997,9817;0,242336
998,9459;0,243105
999,9102;0,2439
1000,8744;0,244747
1001,8386;0,245692
1002,8029;0,24679
1003,7671;0,248102
1004,7313;0,249675
1005,6956;0,251535
1006,6598;0,253698
1007,6240;0,256169
1008,5883;0,258951
1009,5525;0,262034
1010,5167;0,265386
1011,4810;0,268943
1012,4452;0,272619
1013,4094;0,276322
1014,3737;0,279967
1015,3379;0,28349
1016,3021;0,286847
1017,2664;0,29001
1018,2306;0,292962
1019,1948;0,295695
1020,1591;0,298212
1021,1233;0,300526
1022,0875;0,302653
1023,0518;0,304611
1024,0160;0,306414
1024,9802;0,308065
1025,9445;0,309562
1026,9087;0,310892
1027,8729;0,312032
1028,8372;0,312946
1029,8014;0,313576
1030,7656;0,31384
1031,7299;0,313641
1032,6941;0,312892
1033,6583;0,311545
1034,6226;0,30963
1035,5868;0,307265
1036,5510;0,304642
1037,5153;0,301989
1038,4795;0,299514
1039,4437;0,297367
1040,4080;0,295617
1041,3722;0,294258
1042,3364;0,293228
1043,3007;0,292428
1044,2649;0,291751
1045,2291;0,291086
1046,1934;0,290336
1047,1576;0,289418
1048,1218;0,288272
1049,0861;0,286853
1050,0503;0,285133
1051,0145;0,283099
1051,9788;0,280752
1052,9430;0,27811
1053,9072;0,275206
1054,8715;0,272081
1055,8357;0,268763
1056,7999;0,265254
1057,7642;0,261522
1058,7284;0,257524
1059,6926;0,25323
1060,6569;0,24866
1061,6211;0,2439
1062,5853;0,239088
1063,5496;0,234384
1064,5138;0,229922
1065,4780;0,225785
1066,4423;0,221992
1067,4065;0,218514
1068,3707;0,215297
1069,3350;0,212281
1070,2992;0,209414
1071,2634;0,206645
1072,2277;0,203929
1073,1919;0,201214
1074,1561;0,198457
1075,1204;0,195631
1076,0846;0,192735
1077,0488;0,189801
1078,0131;0,186884
1078,9773;0,184054
1079,9415;0,181379
1080,9058;0,178917
1081,8700;0,176706
1082,8342;0,174767
1083,7985;0,173098
1084,7627;0,171674
1085,7269;0,170457
1086,6912;0,169403
1087,6554;0,168472
1088,6196;0,16764
1089,5839;0,166905
1090,5481;0,166277
1091,5123;0,165771
1092,4766;0,165395
1093,4408;0,165142
1094,4050;0,164996
1095,3693;0,16493
1096,3335;0,164926
1097,2977;0,164971
1098,2620;0,165065
1099,2262;0,165208
1100,1904;0,165397
1101,1547;0,165612
1102,1189;0,165817
1103,0831;0,165969
1104,0474;0,166028
1105,0116;0,165969
1105,9758;0,165785
1106,9401;0,165479
1107,9043;0,165053
1108,8685;0,164501
1109,8328;0,163799
1110,7970;0,162914
1111,7612;0,161815
1112,7255;0,16049
1113,6897;0,158959
1114,6539;0,157282
1115,6182;0,155548
1116,5824;0,153849
1117,5466;0,152256
1118,5109;0,150793
1119,4751;0,149425
1120,4393;0,148071
1121,4036;0,146629
1122,3678;0,145001
1123,3320;0,143117
1124,2963;0,140952
1125,2605;0,138516
1126,2247;0,135848
1127,1890;0,133
1128,1532;0,130024
1129,1174;0,126974
1130,0817;0,123898
1131,0459;0,120844
1132,0101;0,11786
1132,9744;0,114996
1133,9386;0,112301
1134,9028;0,109827
1135,8671;0,107622
1136,8313;0,105728
1137,7955;0,104173
1138,7598;0,102962
1139,7240;0,102076
1140,6882;0,101484
1141,6525;0,101144
1142,6167;0,101018
1143,5809;0,101075
1144,5452;0,101289
1145,5094;0,101638
1146,4736;0,102105
1147,4379;0,102674
1148,4021;0,103335
1149,3663;0,104076
1150,3306;0,104878
1151,2948;0,105707
1152,2590;0,106517
1153,2233;0,107252
1154,1875;0,107857
1155,1517;0,10828
1156,1160;0,108475
1157,0802;0,108389
1158,0444;0,107964
1159,0087;0,107132
1159,9729;0,10583
1160,9371;0,104009
1161,9014;0,101653
1162,8656;0,0987873
1163,8298;0,095482
1164,7941;0,0918464
1165,7583;0,0880173
1166,7225;0,0841405
1167,6868;0,0803517
1168,6510;0,076759
1169,6152;0,073433
1170,5795;0,0704058
1171,5437;0,0676799
1172,5079;0,0652414
1173,4722;0,0630721
1174,4364;0,0611562
1175,4006;0,0594807
1176,3649;0,0580322
1177,3291;0,0567938
1178,2933;0,055745
1179,2576;0,0548644
1180,2218;0,0541332
1181,1860;0,0535371
1182,1503;0,0530657
1183,1145;0,0527105
1184,0787;0,0524628
1185,0430;0,0523132
1186,0072;0,0522533
1186,9714;0,0522786
1187,9357;0,0523906
1188,8999;0,0525972
1189,8641;0,0529094
1190,8284;0,0533376
1191,7926;0,0538864
1192,7568;0,054552
1193,7211;0,0553228
1194,6853;0,0561808
1195,6495;0,057105
1196,6138;0,0580746
1197,5780;0,0590714
1198,5422;0,0600813
1199,5065;0,0607666
1200,4707;0,0618205
1201,4349;0,0628748
1202,3992;0,0639249
1203,3634;0,064964
1204,3276;0,0659837
1205,2919;0,0669778
1206,2561;0,0679475
1207,2203;0,0689038
1208,1846;0,0698675
1209,1488;0,0708635
1210,1130;0,0719133
1211,0773;0,0730298
1212,0415;0,0742148
1213,0057;0,0754616
1213,9700;0,0767598
1214,9342;0,0780988
1215,8984;0,0794686
1216,8627;0,0808548
1217,8269;0,0822364
1218,7911;0,0835913
1219,7554;0,0848984
1220,7196;0,0861426
1221,6838;0,0873158
1222,6481;0,0884155
1223,6123;0,0894398
1224,5765;0,0903864
1225,5408;0,0912536
1226,5050;0,0920441
1227,4692;0,0927653
1228,4335;0,0934258
1229,3977;0,0940305
1230,3619;0,0945757
1231,3262;0,0950523
1232,2904;0,095452
1233,2546;0,0957754
1234,2189;0,0960344
1235,1831;0,096248
1236,1473;0,096434
1237,1116;0,0966023
1238,0758;0,0967519
1239,0400;0,0968745
1240,0043;0,0969583
1240,9685;0,0969913
1241,9327;0,0969635
1242,8970;0,0968665
1243,8612;0,0966954
1244,8254;0,0964503
1245,7897;0,0961374
1246,7539;0,0957692
1247,7181;0,0953614
1248,6824;0,0949294
1249,6466;0,0944854
1250,6108;0,0940366
1251,5751;0,093587
1252,5393;0,0931395
1253,5035;0,0926982
1254,4678;0,0922675
1255,4320;0,0918483
1256,3962;0,0914339
1257,3605;0,0910088
1258,3247;0,090551
1259,2889;0,09004
1260,2532;0,0894631
1261,2174;0,0888189
1262,1816;0,0881146
1263,1459;0,0873604
1264,1101;0,0865637
1265,0743;0,0857274
1266,0386;0,0848489
1267,0028;0,0839197
1267,9670;0,0829262
1268,9313;0,0818528
1269,8955;0,0806882
1270,8597;0,0794327
1271,8240;0,0781022
1272,7882;0,0767273
1273,7524;0,0753457
1274,7167;0,0739939
1275,6809;0,0727011
1276,6451;0,0714842
1277,6094;0,0703453
1278,5736;0,0692712
1279,5378;0,0682381
1280,5021;0,067223
1281,4663;0,0662164
1282,4305;0,0652299
1283,3948;0,0642922
1284,3590;0,063436
1285,3232;0,0626822
1286,2875;0,0620314
1287,2517;0,0614681
1288,2159;0,0609727
1289,1802;0,060537
1290,1444;0,0601699
1291,1086;0,0598929
1292,0729;0,0597285
1293,0371;0,0596891
1294,0013;0,0597725
1294,9656;0,0599651
1295,9298;0,0602484
1296,8940;0,0606069
1297,8583;0,061032
1298,8225;0,0615221
1299,7867;0,06208
1300,7510;0,0627088
1301,7152;0,0634143
1302,6794;0,0641972
1303,6437;0,0650531
1304,6079;0,0659747
1305,5721;0,0669523
1306,5364;0,0679783
1307,5006;0,0690503
1308,4648;0,0701714
1309,4291;0,0713415
1310,3933;0,0725483
1311,3575;0,0737609
1312,3218;0,0749335
1313,2860;0,0760186
1314,2502;0,0769776
1315,2145;0,0777798
1316,1787;0,0783916
1317,1429;0,0787703
1318,1072;0,0788775
1319,0714;0,0787092
1320,0356;0,0783192
1320,9999;0,0778091
1321,9641;0,0772889
1322,9283;0,0768362
1323,8926;0,0764799
1324,8568;0,0762089
1325,8210;0,075993
1326,7853;0,0758007
1327,7495;0,0756079
1328,7137;0,0753968
1329,6780;0,0751517
1330,6422;0,0748643
1331,6064;0,0745441
1332,5707;0,0742243
1333,5349;0,0739578
1334,4991;0,073791
1335,4634;0,0737291
1336,4276;0,0737033
1337,3918;0,073559
1338,3561;0,0731023
1339,3203;0,0722198
1340,2845;0,0709895
1341,2488;0,0696481
1342,2130;0,0684392
1343,1772;0,0674988
1344,1415;0,0668499
1345,1057;0,0664508
1346,0699;0,0662396
1347,0342;0,0661611
1347,9984;0,0661825
1348,9626;0,0662967
1349,9269;0,066513
1350,8911;0,0668401
1351,8553;0,0672717
1352,8196;0,0677844
1353,7838;0,0683461
1354,7480;0,068934
1355,7123;0,0695507
1356,6765;0,070226
1357,6407;0,0710022
1358,6050;0,0719101
1359,5692;0,0729417
1360,5334;0,0740167
1361,4977;0,0749783
1362,4619;0,0756751
1363,4261;0,0760898
1364,3904;0,0763528
