TITLE;
DATA TYPE;INFRARED SPECTRUM
ORIGIN;JASCO
OWNER;
DATE;25/03/20
TIME;11:53:06
SPECTROMETER/DATA SYSTEM;
LOCALE;9226
RESOLUTION;
DELTAX;0,964233
XUNITS;1/CM
YUNITS;ABSORBANCE
FIRSTX;  399,1927
LASTX; 4000,6047
NPOINTS;    3736
FIRSTY;     0,26896
MAXY;     0,32066
MINY;    -0,00104
XYDATA
399,1927;0,268959
400,1569;0,268455
401,1211;0,268343
402,0854;0,268202
403,0496;0,267693
404,0138;0,266811
404,9781;0,265895
405,9423;0,265426
406,9065;0,265716
407,8708;0,266686
408,8350;0,267934
409,7992;0,269008
410,7635;0,269669
411,7277;0,269968
412,6919;0,270134
413,6562;0,270382
414,6204;0,270833
415,5846;0,271546
416,5489;0,272594
417,5131;0,274033
418,4773;0,275746
419,4416;0,277325
420,4058;0,278345
421,3700;0,278703
422,3343;0,278555
423,2985;0,278087
424,2627;0,277455
425,2270;0,276807
426,1912;0,276313
427,1554;0,276128
428,1197;0,276328
429,0839;0,276866
430,0481;0,277569
431,0124;0,278204
431,9766;0,278579
432,9408;0,278632
433,9051;0,278444
434,8693;0,278164
435,8335;0,27789
436,7978;0,27761
437,7620;0,277221
438,7262;0,276626
439,6905;0,275808
440,6547;0,274856
441,6189;0,273923
442,5832;0,273159
443,5474;0,272621
444,5116;0,272249
445,4759;0,271906
446,4401;0,271485
447,4043;0,270974
448,3686;0,27046
449,3328;0,270081
450,2970;0,269947
451,2613;0,270067
452,2255;0,270313
453,1897;0,270457
454,1540;0,270263
455,1182;0,269578
456,0824;0,268411
457,0467;0,266976
458,0109;0,265629
458,9751;0,264688
459,9394;0,264262
460,9036;0,26425
461,8678;0,264479
462,8321;0,264801
463,7963;0,265107
464,7605;0,2653
465,7248;0,265288
466,6890;0,265034
467,6532;0,264595
468,6175;0,264135
469,5817;0,263865
470,5459;0,263949
471,5102;0,26439
472,4744;0,264971
473,4386;0,265348
474,4029;0,265251
475,3671;0,264637
476,3313;0,263683
477,2956;0,262685
478,2598;0,261947
479,2240;0,261686
480,1883;0,261968
481,1525;0,26269
482,1167;0,263612
483,0810;0,264443
484,0452;0,264943
485,0094;0,265026
485,9737;0,264788
486,9379;0,264444
487,9021;0,264203
488,8664;0,264175
489,8306;0,264345
490,7948;0,264591
491,7591;0,264762
492,7233;0,264763
493,6875;0,264603
494,6518;0,264381
495,6160;0,26422
496,5802;0,264203
497,5445;0,26435
498,5087;0,264631
499,4729;0,264982
500,4372;0,265324
501,4014;0,265579
502,3656;0,265703
503,3299;0,265706
504,2941;0,265662
505,2583;0,265675
506,2226;0,265833
507,1868;0,266161
508,1510;0,26662
509,1153;0,267131
510,0795;0,267625
511,0437;0,268079
512,0080;0,268514
512,9722;0,268969
513,9365;0,269474
514,9007;0,270027
515,8649;0,270596
516,8292;0,271107
517,7934;0,27146
518,7576;0,271555
519,7219;0,271342
520,6861;0,270851
521,6503;0,270179
522,6146;0,269459
523,5788;0,268815
524,5430;0,268335
525,5073;0,268032
526,4715;0,267831
527,4357;0,267612
528,4000;0,267271
529,3642;0,266776
530,3284;0,266167
531,2927;0,265524
532,2569;0,264918
533,2211;0,264373
534,1854;0,263856
535,1496;0,263307
536,1138;0,26269
537,0781;0,26203
538,0423;0,261411
539,0065;0,260933
539,9708;0,260653
540,9350;0,260563
541,8992;0,260597
542,8635;0,260673
543,8277;0,260727
544,7919;0,260733
545,7562;0,260703
546,7204;0,260674
547,6846;0,260686
548,6489;0,260772
549,6131;0,260946
550,5773;0,261199
551,5416;0,261513
552,5058;0,261872
553,4700;0,262275
554,4343;0,262714
555,3985;0,263147
556,3627;0,263464
557,3270;0,263499
558,2912;0,263082
559,2554;0,262131
560,2197;0,260702
561,1839;0,258995
562,1481;0,257284
563,1124;0,255809
564,0766;0,254695
565,0408;0,253929
566,0051;0,253409
566,9693;0,253018
567,9335;0,252693
568,8978;0,252426
569,8620;0,25223
570,8262;0,252085
571,7905;0,251912
572,7547;0,251609
573,7189;0,251105
574,6832;0,250417
575,6474;0,249654
576,6116;0,248967
577,5759;0,248465
578,5401;0,248154
579,5043;0,247941
580,4686;0,247688
581,4328;0,247288
582,3970;0,246711
583,3613;0,246012
584,3255;0,245294
585,2897;0,244661
586,2540;0,244181
587,2182;0,243871
588,1824;0,243704
589,1467;0,243622
590,1109;0,243556
591,0751;0,243436
592,0394;0,243215
593,0036;0,242884
593,9678;0,242476
594,9321;0,242047
595,8963;0,241648
596,8605;0,241298
597,8248;0,240973
598,7890;0,240622
599,7532;0,240196
600,7175;0,239677
601,6817;0,239085
602,6459;0,23846
603,6102;0,237832
604,5744;0,237201
605,5386;0,236539
606,5029;0,235813
607,4671;0,234998
608,4313;0,23409
609,3956;0,233104
610,3598;0,232068
611,3240;0,231028
612,2883;0,230035
613,2525;0,229134
614,2167;0,228332
615,1810;0,227567
616,1452;0,226721
617,1094;0,225664
618,0737;0,224329
619,0379;0,222759
620,0021;0,221077
620,9664;0,219421
621,9306;0,217881
622,8948;0,216488
623,8591;0,215233
624,8233;0,21409
625,7875;0,213075
626,7518;0,212188
627,7160;0,211415
628,6802;0,210717
629,6445;0,210044
630,6087;0,209355
631,5729;0,208633
632,5372;0,207889
633,5014;0,207148
634,4656;0,206436
635,4299;0,205771
636,3941;0,205162
637,3583;0,20461
638,3226;0,204115
639,2868;0,203666
640,2510;0,20325
641,2153;0,202843
642,1795;0,202426
643,1437;0,201984
644,1080;0,201514
645,0722;0,201029
646,0364;0,200546
647,0007;0,200089
647,9649;0,199671
648,9291;0,199299
649,8934;0,198975
650,8576;0,198697
651,8218;0,198464
652,7861;0,198284
653,7503;0,198162
654,7145;0,198106
655,6788;0,198126
656,6430;0,198226
657,6072;0,198395
658,5715;0,198584
659,5357;0,198697
660,4999;0,198616
661,4642;0,198268
662,4284;0,197676
663,3926;0,196952
664,3569;0,196244
665,3211;0,195717
666,2853;0,195502
667,2496;0,195501
668,2138;0,195163
669,1780;0,193919
670,1423;0,19195
671,1065;0,189787
672,0707;0,187658
673,0350;0,185552
673,9992;0,183437
674,9634;0,181348
675,9277;0,17937
676,8919;0,177576
677,8561;0,17598
678,8204;0,174545
679,7846;0,17322
680,7488;0,171975
681,7131;0,170796
682,6773;0,169682
683,6415;0,168637
684,6058;0,167676
685,5700;0,166814
686,5342;0,166058
687,4985;0,165399
688,4627;0,164815
689,4269;0,164289
690,3912;0,163811
691,3554;0,163378
692,3196;0,162978
693,2839;0,162584
694,2481;0,162167
695,2123;0,161707
696,1766;0,161202
697,1408;0,160656
698,1050;0,160076
699,0693;0,159462
700,0335;0,158818
700,9977;0,158162
701,9620;0,157523
702,9262;0,156924
703,8904;0,15636
704,8547;0,155798
705,8189;0,155189
706,7831;0,154491
707,7474;0,153701
708,7116;0,152855
709,6758;0,152003
710,6401;0,151179
711,6043;0,150383
712,5685;0,149588
713,5328;0,148772
714,4970;0,147944
715,4612;0,146931
716,4255;0,14622
717,3897;0,145565
718,3539;0,144878
719,3182;0,144032
720,2824;0,142936
721,2466;0,141598
722,2109;0,14013
723,1751;0,138682
724,1393;0,137372
725,1036;0,136236
726,0678;0,135251
727,0320;0,134363
727,9963;0,133526
728,9605;0,132715
729,9247;0,131918
730,8890;0,131126
731,8532;0,13033
732,8174;0,129529
733,7817;0,128738
734,7459;0,127986
735,7101;0,1273
736,6744;0,126692
737,6386;0,126144
738,6028;0,125628
739,5671;0,125116
740,5313;0,124597
741,4955;0,124079
742,4598;0,123576
743,4240;0,123098
744,3882;0,12264
745,3525;0,122189
746,3167;0,121731
747,2809;0,121263
748,2452;0,12079
749,2094;0,120323
750,1736;0,119865
751,1379;0,11941
752,1021;0,118948
753,0663;0,118475
754,0306;0,117992
754,9948;0,11751
755,9590;0,11704
756,9233;0,116591
757,8875;0,116164
758,8517;0,115753
759,8160;0,115344
760,7802;0,114923
761,7444;0,114472
762,7087;0,11398
763,6729;0,113445
764,6371;0,112879
765,6014;0,1123
766,5656;0,111725
767,5298;0,111164
768,4941;0,11062
769,4583;0,110089
770,4225;0,109568
771,3868;0,109066
772,3510;0,108593
773,3152;0,10816
774,2795;0,107767
775,2437;0,107403
776,2079;0,107044
777,1722;0,10666
778,1364;0,106225
779,1006;0,105725
780,0649;0,105161
781,0291;0,104549
781,9933;0,103914
782,9576;0,103279
783,9218;0,102654
784,8860;0,102041
785,8503;0,101437
786,8145;0,100847
787,7787;0,100288
788,7430;0,0997775
789,7072;0,0993266
790,6714;0,0989273
791,6357;0,0985582
792,5999;0,0981979
793,5641;0,0978384
794,5284;0,0974875
795,4926;0,0971601
796,4568;0,0968629
797,4211;0,0965871
798,3853;0,0963123
799,3495;0,0960187
800,3138;0,0956982
801,2780;0,0953557
802,2422;0,0950023
803,2065;0,0946471
804,1707;0,0942934
805,1349;0,0939429
806,0992;0,0936015
807,0634;0,0932809
808,0276;0,092994
808,9919;0,0927462
809,9561;0,0925303
810,9203;0,092328
811,8846;0,0921198
812,8488;0,0918947
813,8130;0,0916558
814,7773;0,0914171
815,7415;0,0911958
816,7057;0,091005
817,6700;0,0908505
818,6342;0,0907312
819,5984;0,0906402
820,5627;0,0905657
821,5269;0,0904927
822,4911;0,0904068
823,4554;0,0903016
824,4196;0,0901826
825,3839;0,0900654
826,3481;0,0899661
827,3123;0,0898899
828,2766;0,0898259
829,2408;0,0897524
830,2050;0,089648
831,1693;0,0895025
832,1335;0,0893203
833,0977;0,0891149
834,0620;0,0889004
835,0262;0,0886847
835,9904;0,0884679
836,9547;0,0882454
837,9189;0,0880122
838,8831;0,0877678
839,8474;0,0875186
840,8116;0,0872757
841,7758;0,0870506
842,7401;0,0868482
843,7043;0,0866632
844,6685;0,0864831
845,6328;0,086297
846,5970;0,0861044
847,5612;0,0859178
848,5255;0,0857558
849,4897;0,0856321
850,4539;0,0855484
851,4182;0,0854946
852,3824;0,0854579
853,3466;0,0854296
854,3109;0,0854078
855,2751;0,0853925
856,2393;0,0853809
857,2036;0,085366
858,1678;0,0853405
859,1320;0,0853014
860,0963;0,0852522
861,0605;0,0852004
862,0247;0,0851546
862,9890;0,0851225
863,9532;0,0851128
864,9174;0,0851357
865,8817;0,0852015
866,8459;0,085316
867,8101;0,0854756
868,7744;0,0856657
869,7386;0,0858648
870,7028;0,0860514
871,6671;0,0862117
872,6313;0,0863435
873,5955;0,0864556
874,5598;0,0865623
875,5240;0,0866768
876,4882;0,0868066
877,4525;0,0869541
878,4167;0,0871221
879,3809;0,0873211
880,3452;0,087573
881,3094;0,0879094
882,2736;0,088364
883,2379;0,0889633
884,2021;0,0897191
885,1663;0,0906266
886,1306;0,0916669
887,0948;0,092812
888,0590;0,094032
889,0233;0,0952995
889,9875;0,0965916
890,9517;0,0978872
891,9160;0,0991601
892,8802;0,100372
893,8444;0,101472
894,8087;0,102403
895,7729;0,103113
896,7371;0,103572
897,7014;0,103772
898,6656;0,10373
899,6298;0,103469
900,5941;0,103015
901,5583;0,102391
902,5225;0,101627
903,4868;0,100761
904,4510;0,0998464
905,4152;0,0989445
906,3795;0,0981168
907,3437;0,0974129
908,3079;0,0968632
909,2722;0,0964761
910,2364;0,0962422
911,2007;0,0961412
912,1649;0,0961505
913,1292;0,0962517
914,0934;0,0964343
915,0576;0,0966947
916,0219;0,0970329
916,9861;0,0974475
917,9503;0,0979317
918,9146;0,0984706
919,8788;0,0990426
920,8430;0,0996227
921,8073;0,100189
922,7715;0,100728
923,7357;0,101235
924,7000;0,101712
925,6642;0,102156
926,6284;0,102563
927,5927;0,102921
928,5569;0,10322
929,5211;0,10346
930,4854;0,103653
931,4496;0,103819
932,4138;0,103984
933,3781;0,104167
934,3423;0,10438
935,3065;0,104633
936,2708;0,104936
937,2350;0,105305
938,1992;0,105754
939,1635;0,106298
940,1277;0,106944
941,0919;0,107694
942,0562;0,108546
943,0204;0,109498
943,9846;0,110552
944,9489;0,111714
945,9131;0,112994
946,8773;0,114395
947,8416;0,115918
948,8058;0,117559
949,7700;0,119312
950,7343;0,121181
951,6985;0,123174
952,6627;0,125299
953,6270;0,127555
954,5912;0,129925
955,5554;0,132382
956,5197;0,134896
957,4839;0,137447
958,4481;0,140027
959,4124;0,142637
960,3766;0,145277
961,3408;0,147943
962,3051;0,150632
963,2693;0,153343
964,2335;0,15608
965,1978;0,158853
966,1620;0,161674
967,1262;0,164552
968,0905;0,167503
969,0547;0,170552
970,0189;0,17374
970,9832;0,177117
971,9474;0,180734
972,9116;0,184624
973,8759;0,188801
974,8401;0,193257
975,8043;0,197972
976,7686;0,202919
977,7328;0,208061
978,6970;0,213351
979,6613;0,218717
980,6255;0,224063
981,5897;0,229274
982,5540;0,234238
983,5182;0,23887
984,4824;0,243129
985,4467;0,247017
986,4109;0,250566
987,3751;0,253817
988,3394;0,256798
989,3036;0,259515
990,2678;0,261963
991,2321;0,264127
992,1963;0,266001
993,1605;0,267589
994,1248;0,268909
995,0890;0,269991
996,0532;0,270874
997,0175;0,271601
997,9817;0,272215
998,9459;0,27276
999,9102;0,273281
1000,8744;0,273833
1001,8386;0,274481
1002,8029;0,275299
1003,7671;0,276361
1004,7313;0,277731
1005,6956;0,27945
1006,6598;0,281532
1007,6240;0,283967
1008,5883;0,286726
1009,5525;0,289762
1010,5167;0,293014
1011,4810;0,296404
1012,4452;0,299833
1013,4094;0,303195
1014,3737;0,306382
1015,3379;0,309304
1016,3021;0,311901
1017,2664;0,31414
1018,2306;0,316014
1019,1948;0,317532
1020,1591;0,318712
1021,1233;0,319581
1022,0875;0,32017
1023,0518;0,320519
1024,0160;0,320665
1024,9802;0,32064
1025,9445;0,320464
1026,9087;0,320149
1027,8729;0,319694
1028,8372;0,319089
1029,8014;0,318308
1030,7656;0,31731
1031,7299;0,316041
1032,6941;0,314451
1033,6583;0,312517
1034,6226;0,310266
1035,5868;0,307779
1036,5510;0,305184
1037,5153;0,302631
1038,4795;0,300262
1039,4437;0,298181
1040,4080;0,296433
1041,3722;0,295002
1042,3364;0,293818
1043,3007;0,292781
1044,2649;0,291786
1045,2291;0,290748
1046,1934;0,289608
1047,1576;0,28833
1048,1218;0,286886
1049,0861;0,285246
1050,0503;0,283377
1051,0145;0,281253
1051,9788;0,278868
1052,9430;0,276245
1053,9072;0,273426
1054,8715;0,270449
1055,8357;0,26733
1056,7999;0,264051
1057,7642;0,260572
1058,7284;0,256852
1059,6926;0,252893
1060,6569;0,248747
1061,6211;0,244522
1062,5853;0,240355
1063,5496;0,236375
1064,5138;0,232682
1065,4780;0,229329
1066,4423;0,226327
1067,4065;0,223654
1068,3707;0,221263
1069,3350;0,219089
1070,2992;0,217052
1071,2634;0,215068
1072,2277;0,213052
1073,1919;0,210937
1074,1561;0,208675
1075,1204;0,206247
1076,0846;0,203654
1077,0488;0,200922
1078,0131;0,198092
1078,9773;0,195225
1079,9415;0,192388
1080,9058;0,18965
1081,8700;0,187073
1082,8342;0,184699
1083,7985;0,182551
1084,7627;0,180632
1085,7269;0,178928
1086,6912;0,177412
1087,6554;0,176054
1088,6196;0,174831
1089,5839;0,173729
1090,5481;0,172751
1091,5123;0,171913
1092,4766;0,171228
1093,4408;0,170704
1094,4050;0,170331
1095,3693;0,170083
1096,3335;0,169926
1097,2977;0,169822
1098,2620;0,169742
1099,2262;0,169659
1100,1904;0,169553
1101,1547;0,169405
1102,1189;0,169192
1103,0831;0,168894
1104,0474;0,168496
1105,0116;0,168001
1105,9758;0,167425
1106,9401;0,166794
1107,9043;0,166124
1108,8685;0,16541
1109,8328;0,164611
1110,7970;0,163668
1111,7612;0,162525
1112,7255;0,161159
1113,6897;0,159594
1114,6539;0,157898
1115,6182;0,156165
1116,5824;0,154478
1117,5466;0,152892
1118,5109;0,151417
1119,4751;0,150021
1120,4393;0,148643
1121,4036;0,147205
1122,3678;0,14563
1123,3320;0,143853
1124,2963;0,141839
1125,2605;0,139582
1126,2247;0,137108
1127,1890;0,134468
1128,1532;0,131723
1129,1174;0,128935
1130,0817;0,126158
1131,0459;0,123437
1132,0101;0,12081
1132,9744;0,118315
1133,9386;0,115995
1134,9028;0,113901
1135,8671;0,112088
1136,8313;0,110605
1137,7955;0,109483
1138,7598;0,108729
1139,7240;0,108324
1140,6882;0,108228
1141,6525;0,10839
1142,6167;0,108763
1143,5809;0,109301
1144,5452;0,109967
1145,5094;0,110731
1146,4736;0,111567
1147,4379;0,112454
1148,4021;0,113372
1149,3663;0,114295
1150,3306;0,115189
1151,2948;0,11601
1152,2590;0,116711
1153,2233;0,117243
1154,1875;0,11756
1155,1517;0,117622
1156,1160;0,117385
1157,0802;0,116804
1158,0444;0,115829
1159,0087;0,114414
1159,9729;0,112518
1160,9371;0,110122
1161,9014;0,107228
1162,8656;0,103874
1163,8298;0,100136
1164,7941;0,0961217
1165,7583;0,0919689
1166,7225;0,0878229
1167,6868;0,0838179
1168,6510;0,0800587
1169,6152;0,0766101
1170,5795;0,0734963
1171,5437;0,0707105
1172,5079;0,0682284
1173,4722;0,0660211
1174,4364;0,0640637
1175,4006;0,0623368
1176,3649;0,0608245
1177,3291;0,0595106
1178,2933;0,0583772
1179,2576;0,0574048
1180,2218;0,0565739
1181,1860;0,0558679
1182,1503;0,0552741
1183,1145;0,054785
1184,0787;0,0543981
1185,0430;0,0541154
1186,0072;0,0539425
1186,9714;0,0538866
1187,9357;0,0539543
1188,8999;0,0541501
1189,8641;0,0544756
1190,8284;0,0549298
1191,7926;0,0555091
1192,7568;0,0562074
1193,7211;0,0570151
1194,6853;0,0579177
1195,6495;0,0588958
1196,6138;0,0599252
1197,5780;0,0609801
1198,5422;0,0620367
1199,5065;0,0629527
1200,4707;0,0639839
1201,4349;0,0649893
1202,3992;0,065969
1203,3634;0,0669209
1204,3276;0,067839
1205,2919;0,068716
1206,2561;0,0695502
1207,2203;0,0703516
1208,1846;0,071145
1209,1488;0,071965
1210,1130;0,0728476
1211,0773;0,0738193
1212,0415;0,0748913
1213,0057;0,0760582
1213,9700;0,0773039
1214,9342;0,0786086
1215,8984;0,0799545
1216,8627;0,0813261
1217,8269;0,0827084
1218,7911;0,0840854
1219,7554;0,0854393
1220,7196;0,0867525
1221,6838;0,0880106
1222,6481;0,0892057
1223,6123;0,0903365
1224,5765;0,0914056
1225,5408;0,0924164
1226,5050;0,0933698
1227,4692;0,0942637
1228,4335;0,0950937
1229,3977;0,0958553
1230,3619;0,0965451
1231,3262;0,0971609
1232,2904;0,0977015
1233,2546;0,0981652
1234,2189;0,0985517
1235,1831;0,0988623
1236,1473;0,0991016
1237,1116;0,0992764
1238,0758;0,0993936
1239,0400;0,0994568
1240,0043;0,099465
1240,9685;0,0994132
1241,9327;0,0992959
1242,8970;0,0991098
1243,8612;0,0988556
1244,8254;0,0985367
1245,7897;0,098158
1246,7539;0,0977245
1247,7181;0,0972433
1248,6824;0,0967239
1249,6466;0,0961788
1250,6108;0,0956209
1251,5751;0,0950602
1252,5393;0,0945011
1253,5035;0,0939422
1254,4678;0,0933783
1255,4320;0,0928021
1256,3962;0,0922068
1257,3605;0,0915867
1258,3247;0,0909378
1259,2889;0,0902574
1260,2532;0,0895433
1261,2174;0,0887919
1262,1816;0,0879979
1263,1459;0,0871553
1264,1101;0,0862602
1265,0743;0,0853134
1266,0386;0,0843198
1267,0028;0,0832849
1267,9670;0,0822116
1268,9313;0,0810989
1269,8955;0,0799448
1270,8597;0,0787509
1271,8240;0,0775254
1272,7882;0,0762829
1273,7524;0,0750409
1274,7167;0,0738167
1275,6809;0,0726257
1276,6451;0,07148
1277,6094;0,070387
1278,5736;0,0693475
1279,5378;0,0683547
1280,5021;0,0673982
1281,4663;0,0664694
1282,4305;0,0655671
1283,3948;0,0646989
1284,3590;0,0638801
1285,3232;0,0631295
1286,2875;0,0624658
1287,2517;0,0619048
1288,2159;0,0614559
1289,1802;0,0611203
1290,1444;0,0608911
1291,1086;0,060757
1292,0729;0,0607086
1293,0371;0,0607424
1294,0013;0,0608618
1294,9656;0,0610722
1295,9298;0,0613754
1296,8940;0,0617667
1297,8583;0,0622359
1298,8225;0,0627715
1299,7867;0,063364
1300,7510;0,0640059
1301,7152;0,0646929
1302,6794;0,0654219
1303,6437;0,0661926
1304,6079;0,0670088
1305,5721;0,0678754
1306,5364;0,0687938
1307,5006;0,0697583
1308,4648;0,0707581
1309,4291;0,0717806
1310,3933;0,0728157
1311,3575;0,073853
1312,3218;0,0748754
1313,2860;0,075853
1314,2502;0,0767421
1315,2145;0,077491
1316,1787;0,0780499
1317,1429;0,0783842
1318,1072;0,0784867
1319,0714;0,0783866
1320,0356;0,0781452
1320,9999;0,077836
1321,9641;0,0775222
1322,9283;0,0772431
1323,8926;0,0770154
1324,8568;0,0768408
1325,8210;0,0767125
1326,7853;0,0766181
1327,7495;0,0765395
1328,7137;0,0764541
1329,6780;0,076338
1330,6422;0,0761714
1331,6064;0,0759437
1332,5707;0,0756537
1333,5349;0,0753064
1334,4991;0,0749042
1335,4634;0,0744402
1336,4276;0,0738971
1337,3918;0,0732553
1338,3561;0,0725122
1339,3203;0,0717035
1340,2845;0,0709009
1341,2488;0,0701765
1342,2130;0,0695666
1343,1772;0,0690684
1344,1415;0,068664
1345,1057;0,0683427
1346,0699;0,0681085
1347,0342;0,0679741
1347,9984;0,0679526
1348,9626;0,0680499
1349,9269;0,0682618
1350,8911;0,0685747
1351,8553;0,0689696
1352,8196;0,0694288
1353,7838;0,069941
1354,7480;0,0705031
1355,7123;0,0711168
1356,6765;0,0717823
1357,6407;0,0724958
1358,6050;0,0732518
1359,5692;0,0740449
1360,5334;0,0748612
1361,4977;0,0756669
1362,4619;0,0764155
1363,4261;0,0770794
1364,3904;0,0776652
1365,3546;0,0781933
