TITLE;
DATA TYPE;INFRARED SPECTRUM
ORIGIN;JASCO
OWNER;
DATE;25/02/28
TIME;18:31:20
SPECTROMETER/DATA SYSTEM;
LOCALE;9226
RESOLUTION;
DELTAX;0,964233
XUNITS;1/CM
YUNITS;ABSORBANCE
FIRSTX;  399,1927
LASTX; 4000,6047
NPOINTS;    3736
FIRSTY;     0,15059
MAXY;     0,21568
MINY;     0,01279
XYDATA
399,1927;0,150588
400,1569;0,148349
401,1211;0,146689
402,0854;0,145829
403,0496;0,145577
404,0138;0,1456
404,9781;0,145593
405,9423;0,145371
406,9065;0,144908
407,8708;0,144313
408,8350;0,143752
409,7992;0,143393
410,7635;0,143365
411,7277;0,143728
412,6919;0,144453
413,6562;0,145452
414,6204;0,146635
415,5846;0,147934
416,5489;0,149271
417,5131;0,15046
418,4773;0,151182
419,4416;0,151208
420,4058;0,150714
421,3700;0,150138
422,3343;0,149833
423,2985;0,149942
424,2627;0,150438
425,2270;0,151159
426,1912;0,151869
427,1554;0,152366
428,1197;0,15258
429,0839;0,1526
430,0481;0,152611
431,0124;0,152781
431,9766;0,153165
432,9408;0,153657
433,9051;0,154032
434,8693;0,154075
435,8335;0,153713
436,7978;0,153074
437,7620;0,152414
438,7262;0,151979
439,6905;0,151891
440,6547;0,152119
441,6189;0,152523
442,5832;0,152921
443,5474;0,153172
444,5116;0,153222
445,4759;0,153095
446,4401;0,15284
447,4043;0,152489
448,3686;0,152057
449,3328;0,151565
450,2970;0,151062
451,2613;0,150627
452,2255;0,150345
453,1897;0,150268
454,1540;0,150394
455,1182;0,150652
456,0824;0,150917
457,0467;0,151049
458,0109;0,150963
458,9751;0,150695
459,9394;0,150373
460,9036;0,150109
461,8678;0,149937
462,8321;0,149818
463,7963;0,149698
464,7605;0,149557
465,7248;0,149429
466,6890;0,149378
467,6532;0,149438
468,6175;0,14958
469,5817;0,149724
470,5459;0,149786
471,5102;0,149731
472,4744;0,149607
473,4386;0,149509
474,4029;0,149512
475,3671;0,149625
476,3313;0,149809
477,2956;0,150007
478,2598;0,150177
479,2240;0,150299
480,1883;0,150383
481,1525;0,150456
482,1167;0,150553
483,0810;0,150698
484,0452;0,150891
485,0094;0,151097
485,9737;0,151274
486,9379;0,151398
487,9021;0,151489
488,8664;0,151593
489,8306;0,151764
490,7948;0,152028
491,7591;0,152362
492,7233;0,15271
493,6875;0,153007
494,6518;0,153214
495,6160;0,153328
496,5802;0,153369
497,5445;0,153368
498,5087;0,153358
499,4729;0,153373
500,4372;0,153453
501,4014;0,153632
502,3656;0,153924
503,3299;0,15431
504,2941;0,154748
505,2583;0,155194
506,2226;0,155614
507,1868;0,155993
508,1510;0,156328
509,1153;0,156628
510,0795;0,156906
511,0437;0,157184
512,0080;0,157482
512,9722;0,157817
513,9365;0,158201
514,9007;0,158636
515,8649;0,15912
516,8292;0,159641
517,7934;0,160174
518,7576;0,160672
519,7219;0,161071
520,6861;0,161313
521,6503;0,161369
522,6146;0,161252
523,5788;0,161023
524,5430;0,160786
525,5073;0,16066
526,4715;0,160721
527,4357;0,160952
528,4000;0,161252
529,3642;0,161496
530,3284;0,161596
531,2927;0,161531
532,2569;0,161344
533,2211;0,161106
534,1854;0,16087
535,1496;0,160643
536,1138;0,160395
537,0781;0,160102
538,0423;0,159787
539,0065;0,159523
539,9708;0,159402
540,9350;0,159476
541,8992;0,159718
542,8635;0,160038
543,8277;0,160328
544,7919;0,160522
545,7562;0,160633
546,7204;0,160736
547,6846;0,160923
548,6489;0,161243
549,6131;0,161684
550,5773;0,162187
551,5416;0,162687
552,5058;0,163143
553,4700;0,163552
554,4343;0,163935
555,3985;0,164303
556,3627;0,164631
557,3270;0,164851
558,2912;0,164869
559,2554;0,164615
560,2197;0,164083
561,1839;0,163344
562,1481;0,16252
563,1124;0,161721
564,0766;0,160998
565,0408;0,160328
566,0051;0,159656
566,9693;0,158953
567,9335;0,15825
568,8978;0,157629
569,8620;0,157167
570,8262;0,156888
571,7905;0,156754
572,7547;0,156694
573,7189;0,156652
574,6832;0,156602
575,6474;0,156541
576,6116;0,156463
577,5759;0,156348
578,5401;0,15617
579,5043;0,155928
580,4686;0,155664
581,4328;0,155456
582,3970;0,155372
583,3613;0,155429
584,3255;0,155575
585,2897;0,155716
586,2540;0,155766
587,2182;0,155704
588,1824;0,155575
589,1467;0,155464
590,1109;0,155439
591,0751;0,15551
592,0394;0,155619
593,0036;0,155674
593,9678;0,155604
594,9321;0,155387
595,8963;0,155048
596,8605;0,154634
597,8248;0,154186
598,7890;0,153739
599,7532;0,15332
600,7175;0,152954
601,6817;0,152658
602,6459;0,152428
603,6102;0,152237
604,5744;0,15204
605,5386;0,151795
606,5029;0,15147
607,4671;0,151061
608,4313;0,15058
609,3956;0,150058
610,3598;0,149524
611,3240;0,149001
612,2883;0,148494
613,2525;0,147985
614,2167;0,147439
615,1810;0,146818
616,1452;0,146094
617,1094;0,145271
618,0737;0,144378
619,0379;0,143457
620,0021;0,142538
620,9664;0,141631
621,9306;0,140729
622,8948;0,139822
623,8591;0,138911
624,8233;0,138012
625,7875;0,137143
626,7518;0,136329
627,7160;0,135588
628,6802;0,134923
629,6445;0,134319
630,6087;0,133743
631,5729;0,13316
632,5372;0,132548
633,5014;0,13191
634,4656;0,131279
635,4299;0,130691
636,3941;0,130168
637,3583;0,129703
638,3226;0,129267
639,2868;0,128828
640,2510;0,128374
641,2153;0,127915
642,1795;0,127479
643,1437;0,127083
644,1080;0,126726
645,0722;0,126387
646,0364;0,126031
647,0007;0,125639
647,9649;0,125215
648,9291;0,124795
649,8934;0,124432
650,8576;0,124167
651,8218;0,124007
652,7861;0,123929
653,7503;0,123897
654,7145;0,12389
655,6788;0,123918
656,6430;0,124007
657,6072;0,124165
658,5715;0,124355
659,5357;0,124504
660,4999;0,124542
661,4642;0,124458
662,4284;0,124317
663,3926;0,124208
664,3569;0,124179
665,3211;0,124179
666,2853;0,12402
667,2496;0,123406
668,2138;0,122188
669,1780;0,120669
670,1423;0,119316
671,1065;0,118251
672,0707;0,117327
673,0350;0,11637
673,9992;0,115262
674,9634;0,113976
675,9277;0,112572
676,8919;0,111163
677,8561;0,10984
678,8204;0,108637
679,7846;0,107551
680,7488;0,106574
681,7131;0,105706
682,6773;0,104945
683,6415;0,104283
684,6058;0,103706
685,5700;0,103209
686,5342;0,102788
687,4985;0,102436
688,4627;0,102135
689,4269;0,101864
690,3912;0,101608
691,3554;0,101356
692,3196;0,101097
693,2839;0,100814
694,2481;0,100495
695,2123;0,100142
696,1766;0,0997782
697,1408;0,0994359
698,1050;0,0991385
699,0693;0,0988825
700,0335;0,0986386
700,9977;0,0983676
701,9620;0,0980419
702,9262;0,0976572
703,8904;0,0972322
704,8547;0,0967939
705,8189;0,0963666
706,7831;0,095965
707,7474;0,0955922
708,7116;0,0952418
709,6758;0,0948996
710,6401;0,0945459
711,6043;0,0941583
712,5685;0,0937188
713,5328;0,0932201
714,4970;0,0926697
715,4612;0,0921693
716,4255;0,0915546
717,3897;0,0909352
718,3539;0,0903216
719,3182;0,0897184
720,2824;0,089125
721,2466;0,0885357
722,2109;0,0879399
723,1751;0,0873243
724,1393;0,0866775
725,1036;0,0859973
726,0678;0,0852947
727,0320;0,084593
727,9963;0,0839196
728,9605;0,0832926
729,9247;0,0827131
730,8890;0,0821667
731,8532;0,0816348
732,8174;0,081107
733,7817;0,080588
734,7459;0,0800926
735,7101;0,0796344
736,6744;0,0792148
737,6386;0,0788204
738,6028;0,0784299
739,5671;0,0780266
740,5313;0,0776081
741,4955;0,0771861
742,4598;0,0767779
743,4240;0,0763945
744,3882;0,076034
745,3525;0,075684
746,3167;0,0753291
747,2809;0,0749587
748,2452;0,0745684
749,2094;0,0741572
750,1736;0,073726
751,1379;0,0732785
752,1021;0,0728252
753,0663;0,0723849
754,0306;0,0719787
754,9948;0,0716196
755,9590;0,0713037
756,9233;0,0710102
757,8875;0,0707116
758,8517;0,0703869
759,8160;0,0700308
760,7802;0,0696528
761,7444;0,0692689
762,7087;0,068893
763,6729;0,0685326
764,6371;0,0681906
765,6014;0,0678686
766,5656;0,0675682
767,5298;0,0672895
768,4941;0,06703
769,4583;0,0667851
770,4225;0,0665507
771,3868;0,066325
772,3510;0,0661069
773,3152;0,0658928
774,2795;0,0656761
775,2437;0,065451
776,2079;0,0652176
777,1722;0,0649847
778,1364;0,0647635
779,1006;0,0645582
780,0649;0,0643593
781,0291;0,0641461
781,9933;0,0638976
782,9576;0,0636055
783,9218;0,0632799
784,8860;0,062943
785,8503;0,0626183
786,8145;0,0623191
787,7787;0,0620462
788,7430;0,0617922
789,7072;0,0615486
790,6714;0,0613113
791,6357;0,0610811
792,5999;0,0608616
793,5641;0,0606561
794,5284;0,0604662
795,4926;0,0602916
796,4568;0,0601317
797,4211;0,0599868
798,3853;0,0598587
799,3495;0,0597474
800,3138;0,059648
801,2780;0,0595488
802,2422;0,0594337
803,2065;0,05929
804,1707;0,0591171
805,1349;0,0589309
806,0992;0,0587586
807,0634;0,0586265
808,0276;0,0585465
808,9919;0,0585082
809,9561;0,0584837
810,9203;0,0584401
811,8846;0,0583555
812,8488;0,058228
813,8130;0,0580741
814,7773;0,0579175
815,7415;0,0577765
816,7057;0,0576567
817,6700;0,0575529
818,6342;0,0574587
819,5984;0,0573739
820,5627;0,0573057
821,5269;0,0572615
822,4911;0,0572415
823,4554;0,0572349
824,4196;0,0572258
825,3839;0,057202
826,3481;0,0571613
827,3123;0,0571093
828,2766;0,0570523
829,2408;0,0569912
830,2050;0,0569205
831,1693;0,0568344
832,1335;0,0567317
833,0977;0,0566166
834,0620;0,0564935
835,0262;0,0563597
835,9904;0,0562045
836,9547;0,0560143
837,9189;0,0557826
838,8831;0,0555187
839,8474;0,0552478
840,8116;0,0550028
841,7758;0,0548112
842,7401;0,0546837
843,7043;0,0546105
844,6685;0,0545663
845,6328;0,0545227
846,5970;0,0544601
847,5612;0,054375
848,5255;0,0542778
849,4897;0,0541844
850,4539;0,0541061
851,4182;0,0540441
852,3824;0,0539915
853,3466;0,0539386
854,3109;0,053879
855,2751;0,0538122
856,2393;0,0537419
857,2036;0,053674
858,1678;0,0536151
859,1320;0,0535732
860,0963;0,0535571
861,0605;0,0535734
862,0247;0,0536232
862,9890;0,0536998
863,9532;0,053791
864,9174;0,0538859
865,8817;0,0539804
866,8459;0,054079
867,8101;0,0541901
868,7744;0,0543185
869,7386;0,0544604
870,7028;0,0546037
871,6671;0,0547337
872,6313;0,0548404
873,5955;0,0549219
874,5598;0,0549842
875,5240;0,0550369
876,4882;0,0550884
877,4525;0,0551431
878,4167;0,0552007
879,3809;0,055259
880,3452;0,0553187
881,3094;0,0553885
882,2736;0,055489
883,2379;0,0556503
884,2021;0,0559033
885,1663;0,0562676
886,1306;0,0567427
887,0948;0,0573086
888,0590;0,0579367
889,0233;0,0586035
889,9875;0,0592982
890,9517;0,0600178
891,9160;0,0607539
892,8802;0,0614815
893,8444;0,0621572
894,8087;0,0627316
895,7729;0,0631647
896,7371;0,0634368
897,7014;0,0635486
898,6656;0,063513
899,6298;0,0633473
900,5941;0,0630702
901,5583;0,0627037
902,5225;0,0622755
903,4868;0,0618152
904,4510;0,0613489
905,4152;0,0608951
906,3795;0,060466
907,3437;0,0600739
908,3079;0,0597357
909,2722;0,0594721
910,2364;0,0593002
911,2007;0,0592259
912,1649;0,059241
913,1292;0,0593276
914,0934;0,0594662
915,0576;0,0596431
916,0219;0,0598519
916,9861;0,0600906
917,9503;0,0603574
918,9146;0,0606472
919,8788;0,0609513
920,8430;0,0612596
921,8073;0,0615613
922,7715;0,0618473
923,7357;0,0621099
924,7000;0,0623429
925,6642;0,062542
926,6284;0,0627044
927,5927;0,0628296
928,5569;0,0629202
929,5211;0,0629833
930,4854;0,0630302
931,4496;0,0630756
932,4138;0,0631343
933,3781;0,0632187
934,3423;0,0633364
935,3065;0,0634903
936,2708;0,063681
937,2350;0,063908
938,1992;0,0641708
939,1635;0,0644682
940,1277;0,0647971
941,0919;0,0651518
942,0562;0,0655272
943,0204;0,0659218
943,9846;0,0663423
944,9489;0,0668033
945,9131;0,0673232
946,8773;0,0679158
947,8416;0,0685835
948,8058;0,0693159
949,7700;0,0700961
950,7343;0,0709113
951,6985;0,0717616
952,6627;0,0726613
953,6270;0,0736314
954,5912;0,0746887
955,5554;0,075837
956,5197;0,0770671
957,4839;0,0783628
958,4481;0,0797097
959,4124;0,0810997
960,3766;0,0825309
961,3408;0,0840026
962,3051;0,0855127
963,2693;0,0870566
964,2335;0,088631
965,1978;0,0902369
966,1620;0,0918812
967,1262;0,0935756
968,0905;0,0953348
969,0547;0,0971753
970,0189;0,0991166
970,9832;0,101183
971,9474;0,103404
972,9116;0,105812
973,8759;0,108433
974,8401;0,11129
975,8043;0,114388
976,7686;0,117725
977,7328;0,121284
978,6970;0,12503
979,6613;0,128907
980,6255;0,132829
981,5897;0,136688
982,5540;0,14036
983,5182;0,143735
984,4824;0,146737
985,4467;0,149338
986,4109;0,151552
987,3751;0,153423
988,3394;0,155002
989,3036;0,156337
990,2678;0,157465
991,2321;0,158415
992,1963;0,159211
993,1605;0,159877
994,1248;0,16044
995,0890;0,16093
996,0532;0,161377
997,0175;0,161808
997,9817;0,162245
998,9459;0,162693
999,9102;0,163155
1000,8744;0,163633
1001,8386;0,164142
1002,8029;0,164709
1003,7671;0,165369
1004,7313;0,166155
1005,6956;0,167093
1006,6598;0,168204
1007,6240;0,169515
1008,5883;0,171048
1009,5525;0,172818
1010,5167;0,174812
1011,4810;0,176988
1012,4452;0,17928
1013,4094;0,181624
1014,3737;0,183975
1015,3379;0,186314
1016,3021;0,188639
1017,2664;0,190946
1018,2306;0,193219
1019,1948;0,195436
1020,1591;0,197581
1021,1233;0,199651
1022,0875;0,201657
1023,0518;0,203618
1024,0160;0,205538
1024,9802;0,207407
1025,9445;0,209195
1026,9087;0,210861
1027,8729;0,212359
1028,8372;0,213642
1029,8014;0,214662
1030,7656;0,215362
1031,7299;0,215683
1032,6941;0,215569
1033,6583;0,214983
1034,6226;0,213929
1035,5868;0,212464
1036,5510;0,2107
1037,5153;0,20879
1038,4795;0,206905
1039,4437;0,205202
1040,4080;0,203797
1041,3722;0,202752
1042,3364;0,202065
1043,3007;0,201681
1044,2649;0,201505
1045,2291;0,201425
1046,1934;0,201339
1047,1576;0,201169
1048,1218;0,200863
1049,0861;0,200384
1050,0503;0,199706
1051,0145;0,198799
1051,9788;0,197642
1052,9430;0,196232
1053,9072;0,194588
1054,8715;0,192744
1055,8357;0,190728
1056,7999;0,188539
1057,7642;0,186139
1058,7284;0,183473
1059,6926;0,180501
1060,6569;0,177234
1061,6211;0,173745
1062,5853;0,170157
1063,5496;0,166605
1064,5138;0,163206
1065,4780;0,160031
1066,4423;0,15711
1067,4065;0,154436
1068,3707;0,151986
1069,3350;0,149731
1070,2992;0,147635
1071,2634;0,145654
1072,2277;0,143739
1073,1919;0,141841
1074,1561;0,139916
1075,1204;0,13794
1076,0846;0,13591
1077,0488;0,133852
1078,0131;0,131808
1078,9773;0,12983
1079,9415;0,127968
1080,9058;0,126256
1081,8700;0,124709
1082,8342;0,12333
1083,7985;0,122115
1084,7627;0,121061
1085,7269;0,120162
1086,6912;0,119411
1087,6554;0,118793
1088,6196;0,118287
1089,5839;0,117876
1090,5481;0,117553
1091,5123;0,117319
1092,4766;0,117178
1093,4408;0,117133
1094,4050;0,117176
1095,3693;0,117292
1096,3335;0,117465
1097,2977;0,117683
1098,2620;0,117934
1099,2262;0,118207
1100,1904;0,118486
1101,1547;0,118745
1102,1189;0,118955
1103,0831;0,119088
1104,0474;0,119122
1105,0116;0,119047
1105,9758;0,118864
1106,9401;0,118579
1107,9043;0,118195
1108,8685;0,117705
1109,8328;0,117081
1110,7970;0,116288
1111,7612;0,115297
1112,7255;0,114104
1113,6897;0,112743
1114,6539;0,111289
1115,6182;0,109831
1116,5824;0,108453
1117,5466;0,107205
1118,5109;0,106093
1119,4751;0,105084
1120,4393;0,104115
1121,4036;0,103116
1122,3678;0,102022
1123,3320;0,100785
1124,2963;0,0993774
1125,2605;0,0977923
1126,2247;0,0960441
1127,1890;0,0941627
1128,1532;0,092189
1129,1174;0,0901684
1130,0817;0,0881466
1131,0459;0,0861656
1132,0101;0,0842617
1132,9744;0,0824639
1133,9386;0,0807945
1134,9028;0,07927
1135,8671;0,0779042
1136,8313;0,0767107
1137,7955;0,0757031
1138,7598;0,0748917
1139,7240;0,0742788
1140,6882;0,0738542
1141,6525;0,0735955
1142,6167;0,0734725
1143,5809;0,0734552
1144,5452;0,0735202
1145,5094;0,0736542
1146,4736;0,0738524
1147,4379;0,0741156
1148,4021;0,0744463
1149,3663;0,0748458
1150,3306;0,0753115
1151,2948;0,0758337
1152,2590;0,0763936
1153,2233;0,0769616
1154,1875;0,0774998
1155,1517;0,0779646
1156,1160;0,0783104
1157,0802;0,0784903
1158,0444;0,0784552
1159,0087;0,0781541
1159,9729;0,0775362
1160,9371;0,0765586
1161,9014;0,0751958
1162,8656;0,0734504
1163,8298;0,0713586
1164,7941;0,0689894
1165,7583;0,0664375
1166,7225;0,0638102
1167,6868;0,0612119
1168,6510;0,0587291
1169,6152;0,0564201
1170,5795;0,0543146
1171,5437;0,0524195
1172,5079;0,0507306
1173,4722;0,0492409
1174,4364;0,0479442
1175,4006;0,0468315
1176,3649;0,0458866
1177,3291;0,0450857
1178,2933;0,0444027
1179,2576;0,0438162
1180,2218;0,0433149
1181,1860;0,0428962
1182,1503;0,042561
1183,1145;0,042308
1184,0787;0,0421314
1185,0430;0,042024
1186,0072;0,0419805
1186,9714;0,0419996
1187,9357;0,0420832
1188,8999;0,0422333
1189,8641;0,0424506
1190,8284;0,0427341
1191,7926;0,0430822
1192,7568;0,0434929
1193,7211;0,0439626
1194,6853;0,0444845
1195,6495;0,0450478
1196,6138;0,0456387
1197,5780;0,0462425
1198,5422;0,0468461
1199,5065;0,0474512
1200,4707;0,0480261
1201,4349;0,0485816
1202,3992;0,049118
1203,3634;0,0496374
1204,3276;0,0501415
1205,2919;0,0506309
1206,2561;0,0511064
1207,2203;0,0515718
1208,1846;0,0520371
1209,1488;0,0525189
1210,1130;0,0530381
1211,0773;0,0536134
1212,0415;0,0542555
1213,0057;0,054964
1213,9700;0,0557284
1214,9342;0,0565329
1215,8984;0,0573617
1216,8627;0,0582027
1217,8269;0,0590484
1218,7911;0,059893
1219,7554;0,0607308
1220,7196;0,0615528
1221,6838;0,0623471
1222,6481;0,0631013
1223,6123;0,0638066
1224,5765;0,0644622
1225,5408;0,0650759
1226,5050;0,0656606
1227,4692;0,066228
1228,4335;0,0667819
1229,3977;0,0673155
1230,3619;0,0678147
1231,3262;0,0682641
1232,2904;0,0686536
1233,2546;0,0689814
1234,2189;0,0692531
1235,1831;0,0694774
1236,1473;0,069663
1237,1116;0,0698163
1238,0758;0,0699418
1239,0400;0,0700424
1240,0043;0,0701191
1240,9685;0,0701699
1241,9327;0,0701882
1242,8970;0,0701638
1243,8612;0,0700857
1244,8254;0,0699463
1245,7897;0,0697449
1246,7539;0,0694886
1247,7181;0,0691899
1248,6824;0,0688613
1249,6466;0,0685123
1250,6108;0,0681477
1251,5751;0,0677701
1252,5393;0,0673831
1253,5035;0,0669927
1254,4678;0,066606
1255,4320;0,0662265
1256,3962;0,0658511
1257,3605;0,0654704
1258,3247;0,065072
1259,2889;0,0646459
1260,2532;0,0641876
1261,2174;0,0636971
1262,1816;0,0631755
1263,1459;0,0626228
1264,1101;0,0620367
1265,0743;0,0614155
1266,0386;0,0607598
1267,0028;0,0600731
1267,9670;0,0593614
1268,9313;0,0586312
1269,8955;0,05789
1270,8597;0,0571455
1271,8240;0,056405
1272,7882;0,0556741
1273,7524;0,0549556
1274,7167;0,0542506
1275,6809;0,0535603
1276,6451;0,0528879
1277,6094;0,052238
1278,5736;0,0516138
1279,5378;0,0510146
1280,5021;0,0504358
1281,4663;0,0498712
1282,4305;0,0493178
1283,3948;0,0487774
1284,3590;0,0482577
1285,3232;0,0477692
1286,2875;0,0473235
1287,2517;0,0469315
1288,2159;0,0466023
1289,1802;0,046342
1290,1444;0,0461529
1291,1086;0,0460329
1292,0729;0,0459774
1293,0371;0,0459809
1294,0013;0,0460401
1294,9656;0,0461546
1295,9298;0,0463259
1296,8940;0,0465565
1297,8583;0,0468478
1298,8225;0,0471996
1299,7867;0,0476085
1300,7510;0,0480688
1301,7152;0,0485719
1302,6794;0,0491091
1303,6437;0,0496731
1304,6079;0,0502599
1305,5721;0,050868
1306,5364;0,0514969
1307,5006;0,0521444
1308,4648;0,0528058
1309,4291;0,0534745
1310,3933;0,0541418
1311,3575;0,0547967
1312,3218;0,0554244
1313,2860;0,0560053
1314,2502;0,0565155
1315,2145;0,0569286
1316,1787;0,0572187
1317,1429;0,0573655
1318,1072;0,0573631
1319,0714;0,0572266
1320,0356;0,0569921
1320,9999;0,056706
1321,9641;0,05641
1322,9283;0,0561319
1323,8926;0,055886
1324,8568;0,0556775
1325,8210;0,0555071
1326,7853;0,0553713
1327,7495;0,0552619
1328,7137;0,0551654
1329,6780;0,0550654
1330,6422;0,0549469
1331,6064;0,0548014
1332,5707;0,0546274
1333,5349;0,0544258
1334,4991;0,0541918
1335,4634;0,0539091
1336,4276;0,0535528
1337,3918;0,0531041
1338,3561;0,0525726
1339,3203;0,0520084
1340,2845;0,0514822
1341,2488;0,0510455
1342,2130;0,050708
1343,1772;0,0504487
1344,1415;0,0502394
1345,1057;0,0500629
1346,0699;0,0499193
1347,0342;0,0498237
1347,9984;0,0497977
1348,9626;0,0498575
1349,9269;0,0500048
1350,8911;0,0502247
1351,8553;0,0504925
1352,8196;0,0507864
1353,7838;0,0510993
1354,7480;0,0514427
1355,7123;0,0518374
1356,6765;0,0522957
