TITLE;
DATA TYPE;INFRARED SPECTRUM
ORIGIN;JASCO
OWNER;
DATE;25/02/28
TIME;17:27:07
SPECTROMETER/DATA SYSTEM;
LOCALE;9226
RESOLUTION;
DELTAX;0,964233
XUNITS;1/CM
YUNITS;ABSORBANCE
FIRSTX;  399,1927
LASTX; 4000,6047
NPOINTS;    3736
FIRSTY;     0,15891
MAXY;     0,24988
MINY;     0,01092
XYDATA
399,1927;0,158909
400,1569;0,161206
401,1211;0,162153
402,0854;0,162473
403,0496;0,162839
404,0138;0,163672
404,9781;0,16508
405,9423;0,166852
406,9065;0,168568
407,8708;0,169811
408,8350;0,170392
409,7992;0,170429
410,7635;0,170277
411,7277;0,170329
412,6919;0,170781
413,6562;0,171538
414,6204;0,172324
415,5846;0,172877
416,5489;0,173144
417,5131;0,17344
418,4773;0,174405
419,4416;0,176447
420,4058;0,179182
421,3700;0,181829
422,3343;0,183901
423,2985;0,185319
424,2627;0,186221
425,2270;0,186805
426,1912;0,187235
427,1554;0,187605
428,1197;0,187946
429,0839;0,188266
430,0481;0,188583
431,0124;0,188918
431,9766;0,189273
432,9408;0,189614
433,9051;0,189879
434,8693;0,190006
435,8335;0,189962
436,7978;0,189744
437,7620;0,189385
438,7262;0,188944
439,6905;0,18852
440,6547;0,18824
441,6189;0,188221
442,5832;0,188499
443,5474;0,18897
444,5116;0,189435
445,4759;0,189727
446,4401;0,189822
447,4043;0,189831
448,3686;0,189895
449,3328;0,190062
450,2970;0,190232
451,2613;0,1902
452,2255;0,189787
453,1897;0,188971
454,1540;0,187929
455,1182;0,18697
456,0824;0,186406
457,0467;0,186392
458,0109;0,18682
458,9751;0,187383
459,9394;0,18782
460,9036;0,188102
461,8678;0,188381
462,8321;0,188818
463,7963;0,18943
464,7605;0,190036
465,7248;0,190334
466,6890;0,190086
467,6532;0,189266
468,6175;0,188076
469,5817;0,186832
470,5459;0,185823
471,5102;0,185197
472,4744;0,184932
473,4386;0,18489
474,4029;0,184939
475,3671;0,185027
476,3313;0,185157
477,2956;0,185325
478,2598;0,185475
479,2240;0,185522
480,1883;0,185392
481,1525;0,185077
482,1167;0,184647
483,0810;0,184228
484,0452;0,183947
485,0094;0,183882
485,9737;0,184049
486,9379;0,184413
487,9021;0,184928
488,8664;0,185543
489,8306;0,1862
490,7948;0,186822
491,7591;0,187328
492,7233;0,187659
493,6875;0,187819
494,6518;0,187865
495,6160;0,187884
496,5802;0,187947
497,5445;0,188087
498,5087;0,188294
499,4729;0,188532
500,4372;0,188765
501,4014;0,18898
502,3656;0,189194
503,3299;0,189443
504,2941;0,189748
505,2583;0,190094
506,2226;0,190433
507,1868;0,190707
508,1510;0,190882
509,1153;0,190973
510,0795;0,19104
511,0437;0,191171
512,0080;0,191443
512,9722;0,191902
513,9365;0,19255
514,9007;0,193343
515,8649;0,194182
516,8292;0,194945
517,7934;0,195523
518,7576;0,195885
519,7219;0,196087
520,6861;0,196231
521,6503;0,196387
522,6146;0,196558
523,5788;0,196696
524,5430;0,196742
525,5073;0,196678
526,4715;0,196552
527,4357;0,196442
528,4000;0,19639
529,3642;0,196371
530,3284;0,196309
531,2927;0,196126
532,2569;0,195791
533,2211;0,195336
534,1854;0,194834
535,1496;0,194359
536,1138;0,193944
537,0781;0,193576
538,0423;0,193222
539,0065;0,192863
539,9708;0,19251
540,9350;0,192202
541,8992;0,191985
542,8635;0,191888
543,8277;0,191922
544,7919;0,19208
545,7562;0,192341
546,7204;0,192676
547,6846;0,193049
548,6489;0,193416
549,6131;0,193743
550,5773;0,194029
551,5416;0,194309
552,5058;0,194641
553,4700;0,19507
554,4343;0,195589
555,3985;0,196118
556,3627;0,196526
557,3270;0,196676
558,2912;0,196473
559,2554;0,195894
560,2197;0,194989
561,1839;0,193867
562,1481;0,19267
563,1124;0,191544
564,0766;0,190602
565,0408;0,1899
566,0051;0,189424
566,9693;0,189101
567,9335;0,188835
568,8978;0,188545
569,8620;0,188192
570,8262;0,187785
571,7905;0,187363
572,7547;0,18696
573,7189;0,186598
574,6832;0,186278
575,6474;0,185985
576,6116;0,185697
577,5759;0,185401
578,5401;0,185094
579,5043;0,184786
580,4686;0,184486
581,4328;0,184195
582,3970;0,183897
583,3613;0,183575
584,3255;0,183228
585,2897;0,182888
586,2540;0,182615
587,2182;0,182469
588,1824;0,182481
589,1467;0,182626
590,1109;0,182827
591,0751;0,182982
592,0394;0,183009
593,0036;0,182875
593,9678;0,182603
594,9321;0,182246
595,8963;0,18186
596,8605;0,181479
597,8248;0,181122
598,7890;0,180797
599,7532;0,180501
600,7175;0,180226
601,6817;0,179957
602,6459;0,179673
603,6102;0,17936
604,5744;0,179004
605,5386;0,178597
606,5029;0,178123
607,4671;0,177565
608,4313;0,176912
609,3956;0,176173
610,3598;0,175384
611,3240;0,174598
612,2883;0,17386
613,2525;0,173187
614,2167;0,172556
615,1810;0,171913
616,1452;0,171197
617,1094;0,170368
618,0737;0,169417
619,0379;0,168371
620,0021;0,167267
620,9664;0,166137
621,9306;0,164995
622,8948;0,16385
623,8591;0,162716
624,8233;0,16162
625,7875;0,160599
626,7518;0,159689
627,7160;0,15891
628,6802;0,158256
629,6445;0,157698
630,6087;0,15719
631,5729;0,156687
632,5372;0,156157
633,5014;0,155589
634,4656;0,154994
635,4299;0,15439
636,3941;0,153795
637,3583;0,153219
638,3226;0,152669
639,2868;0,152147
640,2510;0,151658
641,2153;0,151195
642,1795;0,15074
643,1437;0,15026
644,1080;0,149727
645,0722;0,149133
646,0364;0,148501
647,0007;0,147881
647,9649;0,147328
648,9291;0,146883
649,8934;0,146552
650,8576;0,146318
651,8218;0,146158
652,7861;0,146063
653,7503;0,146047
654,7145;0,146122
655,6788;0,146284
656,6430;0,146497
657,6072;0,146706
658,5715;0,14686
659,5357;0,146937
660,4999;0,146956
661,4642;0,146956
662,4284;0,146971
663,3926;0,147002
664,3569;0,147002
665,3211;0,146873
666,2853;0,146451
667,2496;0,145556
668,2138;0,144201
669,1780;0,142771
670,1423;0,141626
671,1065;0,140714
672,0707;0,139779
673,0350;0,13862
673,9992;0,137161
674,9634;0,135459
675,9277;0,133675
676,8919;0,131994
677,8561;0,130513
678,8204;0,129222
679,7846;0,128066
680,7488;0,127008
681,7131;0,126053
682,6773;0,125215
683,6415;0,124493
684,6058;0,123864
685,5700;0,123297
686,5342;0,122775
687,4985;0,12229
688,4627;0,121849
689,4269;0,12146
690,3912;0,121133
691,3554;0,120867
692,3196;0,120644
693,2839;0,120433
694,2481;0,120199
695,2123;0,119917
696,1766;0,119583
697,1408;0,119212
698,1050;0,118824
699,0693;0,118436
700,0335;0,118053
700,9977;0,117677
701,9620;0,117309
702,9262;0,116954
703,8904;0,116615
704,8547;0,116286
705,8189;0,115953
706,7831;0,115597
707,7474;0,115196
708,7116;0,114741
709,6758;0,11423
710,6401;0,113666
711,6043;0,11306
712,5685;0,112424
713,5328;0,111777
714,4970;0,11114
715,4612;0,110539
716,4255;0,109966
717,3897;0,109414
718,3539;0,108846
719,3182;0,108214
720,2824;0,107487
721,2466;0,10666
722,2109;0,105766
723,1751;0,104852
724,1393;0,103959
725,1036;0,10311
726,0678;0,102308
727,0320;0,101544
727,9963;0,100804
728,9605;0,100071
729,9247;0,0993389
730,8890;0,0986089
731,8532;0,0978901
732,8174;0,097196
733,7817;0,0965405
734,7459;0,0959372
735,7101;0,0953986
736,6744;0,0949341
737,6386;0,0945433
738,6028;0,0942088
739,5671;0,0938962
740,5313;0,0935645
741,4955;0,0931846
742,4598;0,0927539
743,4240;0,0922962
744,3882;0,0918461
745,3525;0,0914278
746,3167;0,0910419
747,2809;0,0906684
748,2452;0,0902819
749,2094;0,0898672
750,1736;0,0894266
751,1379;0,0889755
752,1021;0,0885325
753,0663;0,0881108
754,0306;0,0877155
754,9948;0,0873451
755,9590;0,086995
756,9233;0,0866582
757,8875;0,0863265
758,8517;0,0859914
759,8160;0,0856465
760,7802;0,0852899
761,7444;0,0849243
762,7087;0,0845545
763,6729;0,0841833
764,6371;0,0838095
765,6014;0,0834303
766,5656;0,0830454
767,5298;0,0826605
768,4941;0,082286
769,4583;0,0819313
770,4225;0,0815995
771,3868;0,0812858
772,3510;0,0809817
773,3152;0,0806807
774,2795;0,0803823
775,2437;0,0800903
776,2079;0,0798074
777,1722;0,0795316
778,1364;0,0792553
779,1006;0,0789688
780,0649;0,0786629
781,0291;0,0783303
781,9933;0,0779663
782,9576;0,0775702
783,9218;0,0771484
784,8860;0,0767162
785,8503;0,0762962
786,8145;0,0759113
787,7787;0,0755755
788,7430;0,0752903
789,7072;0,0750463
790,6714;0,0748299
791,6357;0,0746297
792,5999;0,0744384
793,5641;0,0742519
794,5284;0,0740674
795,4926;0,073884
796,4568;0,0737035
797,4211;0,0735298
798,3853;0,0733642
799,3495;0,0732004
800,3138;0,0730248
801,2780;0,0728241
802,2422;0,0725959
803,2065;0,0723544
804,1707;0,0721253
805,1349;0,0719313
806,0992;0,071779
807,0634;0,071656
808,0276;0,0715405
808,9919;0,071417
809,9561;0,0712852
810,9203;0,0711561
811,8846;0,07104
812,8488;0,0709351
813,8130;0,0708271
814,7773;0,0706992
815,7415;0,0705457
816,7057;0,0703782
817,6700;0,0702202
818,6342;0,0700941
819,5984;0,0700097
820,5627;0,0699608
821,5269;0,0699311
822,4911;0,0699048
823,4554;0,0698749
824,4196;0,0698453
825,3839;0,0698271
826,3481;0,0698309
827,3123;0,0698594
828,2766;0,069904
829,2408;0,0699465
830,2050;0,0699654
831,1693;0,0699436
832,1335;0,0698736
833,0977;0,0697566
834,0620;0,0695979
835,0262;0,069402
835,9904;0,0691726
836,9547;0,0689161
837,9189;0,0686472
838,8831;0,0683878
839,8474;0,0681618
840,8116;0,0679853
841,7758;0,0678609
842,7401;0,0677778
843,7043;0,0677183
844,6685;0,067665
845,6328;0,0676065
846,5970;0,0675407
847,5612;0,0674736
848,5255;0,0674177
849,4897;0,0673865
850,4539;0,0673877
851,4182;0,0674174
852,3824;0,0674603
853,3466;0,067496
854,3109;0,0675083
855,2751;0,0674922
856,2393;0,0674542
857,2036;0,0674065
858,1678;0,0673623
859,1320;0,0673326
860,0963;0,0673272
861,0605;0,0673541
862,0247;0,0674154
862,9890;0,0675038
863,9532;0,0676025
864,9174;0,0676929
865,8817;0,0677646
866,8459;0,0678218
867,8101;0,0678798
868,7744;0,0679556
869,7386;0,0680576
870,7028;0,0681829
871,6671;0,0683206
872,6313;0,068458
873,5955;0,0685839
874,5598;0,0686884
875,5240;0,0687622
876,4882;0,0687996
877,4525;0,0688032
878,4167;0,0687888
879,3809;0,0687854
880,3452;0,0688286
881,3094;0,0689518
882,2736;0,0691778
883,2379;0,0695152
884,2021;0,0699606
885,1663;0,070504
886,1306;0,0711349
887,0948;0,071846
888,0590;0,072632
889,0233;0,0734849
889,9875;0,0743885
890,9517;0,0753164
891,9160;0,0762343
892,8802;0,0771055
893,8444;0,0778952
894,8087;0,0785729
895,7729;0,0791115
896,7371;0,0794884
897,7014;0,0796897
898,6656;0,0797155
899,6298;0,0795819
900,5941;0,0793172
901,5583;0,0789532
902,5225;0,0785185
903,4868;0,0780368
904,4510;0,0775305
905,4152;0,077026
906,3795;0,076555
907,3437;0,076149
908,3079;0,0758329
909,2722;0,075619
910,2364;0,0755063
911,2007;0,0754841
912,1649;0,0755374
913,1292;0,0756513
914,0934;0,0758141
915,0576;0,0760188
916,0219;0,076262
916,9861;0,0765418
917,9503;0,0768547
918,9146;0,0771932
919,8788;0,0775456
920,8430;0,0778991
921,8073;0,0782425
922,7715;0,0785687
923,7357;0,078874
924,7000;0,0791575
925,6642;0,0794199
926,6284;0,079664
927,5927;0,0798946
928,5569;0,0801171
929,5211;0,0803347
930,4854;0,0805459
931,4496;0,0807452
932,4138;0,0809273
933,3781;0,0810927
934,3423;0,0812526
935,3065;0,0814271
936,2708;0,0816387
937,2350;0,0819043
938,1992;0,0822302
939,1635;0,0826142
940,1277;0,0830526
941,0919;0,0835478
942,0562;0,0841104
943,0204;0,0847546
943,9846;0,08549
944,9489;0,0863171
945,9131;0,0872283
946,8773;0,088215
947,8416;0,089275
948,8058;0,0904146
949,7700;0,091644
950,7343;0,0929705
951,6985;0,0943941
952,6627;0,0959089
953,6270;0,0975075
954,5912;0,0991866
955,5554;0,100946
956,5197;0,102786
957,4839;0,104699
958,4481;0,106669
959,4124;0,108672
960,3766;0,110689
961,3408;0,112707
962,3051;0,114727
963,2693;0,11676
964,2335;0,118823
965,1978;0,12093
966,1620;0,123089
967,1262;0,125307
968,0905;0,127595
969,0547;0,129967
970,0189;0,132445
970,9832;0,135046
971,9474;0,137788
972,9116;0,140683
973,8759;0,143751
974,8401;0,147015
975,8043;0,150501
976,7686;0,154227
977,7328;0,15818
978,6970;0,162312
979,6613;0,166532
980,6255;0,170724
981,5897;0,174762
982,5540;0,178538
983,5182;0,18197
984,4824;0,185012
985,4467;0,187656
986,4109;0,189919
987,3751;0,191844
988,3394;0,193486
989,3036;0,194906
990,2678;0,196159
991,2321;0,197288
992,1963;0,198318
993,1605;0,199259
994,1248;0,200114
995,0890;0,200889
996,0532;0,201598
997,0175;0,202262
997,9817;0,20291
998,9459;0,203567
999,9102;0,204254
1000,8744;0,204987
1001,8386;0,205783
1002,8029;0,206666
1003,7671;0,207667
1004,7313;0,20882
1005,6956;0,210159
1006,6598;0,21171
1007,6240;0,213489
1008,5883;0,215502
1009,5525;0,217742
1010,5167;0,220185
1011,4810;0,222787
1012,4452;0,225483
1013,4094;0,228193
1014,3737;0,23083
1015,3379;0,233308
1016,3021;0,235562
1017,2664;0,23755
1018,2306;0,239259
1019,1948;0,24071
1020,1591;0,241945
1021,1233;0,243024
1022,0875;0,244005
1023,0518;0,244937
1024,0160;0,245845
1024,9802;0,246734
1025,9445;0,247587
1026,9087;0,248372
1027,8729;0,24905
1028,8372;0,249569
1029,8014;0,249869
1030,7656;0,249881
1031,7299;0,249533
1032,6941;0,248762
1033,6583;0,247538
1034,6226;0,245878
1035,5868;0,24386
1036,5510;0,24162
1037,5153;0,239326
1038,4795;0,237148
1039,4437;0,235223
1040,4080;0,23363
1041,3722;0,232383
1042,3364;0,231443
1043,3007;0,230729
1044,2649;0,230145
1045,2291;0,229593
1046,1934;0,228989
1047,1576;0,228269
1048,1218;0,227396
1049,0861;0,226349
1050,0503;0,225118
1051,0145;0,22369
1051,9788;0,222055
1052,9430;0,220207
1053,9072;0,218154
1054,8715;0,215914
1055,8357;0,213505
1056,7999;0,210926
1057,7642;0,208148
1058,7284;0,205128
1059,6926;0,201832
1060,6569;0,198268
1061,6211;0,194502
1062,5853;0,190656
1063,5496;0,186878
1064,5138;0,183304
1065,4780;0,18003
1066,4423;0,177097
1067,4065;0,174494
1068,3707;0,172179
1069,3350;0,170097
1070,2992;0,168195
1071,2634;0,166429
1072,2277;0,164754
1073,1919;0,163124
1074,1561;0,161478
1075,1204;0,159756
1076,0846;0,157912
1077,0488;0,155932
1078,0131;0,153847
1078,9773;0,151727
1079,9415;0,149657
1080,9058;0,147717
1081,8700;0,145952
1082,8342;0,144377
1083,7985;0,142975
1084,7627;0,141725
1085,7269;0,140606
1086,6912;0,139608
1087,6554;0,13873
1088,6196;0,137972
1089,5839;0,137333
1090,5481;0,136815
1091,5123;0,136419
1092,4766;0,136152
1093,4408;0,136013
1094,4050;0,135994
1095,3693;0,136079
1096,3335;0,136241
1097,2977;0,136461
1098,2620;0,136723
1099,2262;0,137018
1100,1904;0,137331
1101,1547;0,137637
1102,1189;0,137895
1103,0831;0,138056
1104,0474;0,13808
1105,0116;0,137952
1105,9758;0,137679
1106,9401;0,137284
1107,9043;0,13679
1108,8685;0,136197
1109,8328;0,135477
1110,7970;0,134589
1111,7612;0,133493
1112,7255;0,132181
1113,6897;0,13069
1114,6539;0,129094
1115,6182;0,127491
1116,5824;0,12597
1117,5466;0,124588
1118,5109;0,123358
1119,4751;0,122252
1120,4393;0,121207
1121,4036;0,120147
1122,3678;0,118988
1123,3320;0,117659
1124,2963;0,116109
1125,2605;0,114321
1126,2247;0,112311
1127,1890;0,110132
1128,1532;0,107851
1129,1174;0,105539
1130,0817;0,103249
1131,0459;0,101014
1132,0101;0,0988518
1132,9744;0,0967765
1133,9386;0,0948124
1134,9028;0,0929981
1135,8671;0,0913814
1136,8313;0,0900069
1137,7955;0,0889043
1138,7598;0,0880817
1139,7240;0,0875259
1140,6882;0,0872087
1141,6525;0,0870953
1142,6167;0,0871502
1143,5809;0,0873415
1144,5452;0,0876413
1145,5094;0,0880248
1146,4736;0,0884699
1147,4379;0,088958
1148,4021;0,0894753
1149,3663;0,0900144
1150,3306;0,0905726
1151,2948;0,0911467
1152,2590;0,0917267
1153,2233;0,0922905
1154,1875;0,0928026
1155,1517;0,0932174
1156,1160;0,0934834
1157,0802;0,0935465
1158,0444;0,0933504
1159,0087;0,0928365
1159,9729;0,0919484
1160,9371;0,0906411
1161,9014;0,0888951
1162,8656;0,0867279
1163,8298;0,0841976
1164,7941;0,0813959
1165,7583;0,0784334
1166,7225;0,0754228
1167,6868;0,0724658
1168,6510;0,0696445
1169,6152;0,0670187
1170,5795;0,0646266
1171,5437;0,0624861
1172,5079;0,0605983
1173,4722;0,0589497
1174,4364;0,0575159
1175,4006;0,0562665
1176,3649;0,0551718
1177,3291;0,0542091
1178,2933;0,053367
1179,2576;0,0526436
1180,2218;0,0520407
1181,1860;0,051556
1182,1503;0,0511787
1183,1145;0,0508913
1184,0787;0,0506764
1185,0430;0,0505232
1186,0072;0,0504312
1186,9714;0,050408
1187,9357;0,0504641
1188,8999;0,0506085
1189,8641;0,0508461
1190,8284;0,0511785
1191,7926;0,0516043
1192,7568;0,0521199
1193,7211;0,0527175
1194,6853;0,0533844
1195,6495;0,054103
1196,6138;0,0548537
1197,5780;0,0556187
1198,5422;0,0563865
1199,5065;0,0571484
1200,4707;0,0579178
1201,4349;0,058692
1202,3992;0,059469
1203,3634;0,0602393
1204,3276;0,0609879
1205,2919;0,0617009
1206,2561;0,0623739
1207,2203;0,0630165
1208,1846;0,0636524
1209,1488;0,064314
1210,1130;0,0650338
1211,0773;0,0658369
1212,0415;0,0667355
1213,0057;0,0677268
1213,9700;0,0687955
1214,9342;0,0699178
1215,8984;0,0710674
1216,8627;0,0722196
1217,8269;0,0733545
1218,7911;0,0744582
1219,7554;0,0755226
1220,7196;0,0765443
1221,6838;0,0775239
1222,6481;0,0784652
1223,6123;0,0793727
1224,5765;0,0802502
1225,5408;0,0810982
1226,5050;0,0819129
1227,4692;0,0826872
1228,4335;0,0834135
1229,3977;0,0840857
1230,3619;0,0846993
1231,3262;0,0852512
1232,2904;0,0857377
1233,2546;0,0861549
1234,2189;0,0865015
1235,1831;0,086781
1236,1473;0,0870024
1237,1116;0,0871777
1238,0758;0,0873164
1239,0400;0,0874204
1240,0043;0,0874827
1240,9685;0,0874901
1241,9327;0,0874297
1242,8970;0,0872931
1243,8612;0,0870793
1244,8254;0,0867935
1245,7897;0,0864437
1246,7539;0,0860385
1247,7181;0,0855856
1248,6824;0,0850918
1249,6466;0,084563
1250,6108;0,0840054
1251,5751;0,0834255
1252,5393;0,0828313
1253,5035;0,0822308
1254,4678;0,0816302
1255,4320;0,0810298
1256,3962;0,0804235
1257,3605;0,0797997
1258,3247;0,0791469
1259,2889;0,0784585
1260,2532;0,0777345
1261,2174;0,0769798
1262,1816;0,0761993
1263,1459;0,075395
1264,1101;0,0745666
1265,0743;0,073713
1266,0386;0,0728346
1267,0028;0,0719334
1267,9670;0,0710122
1268,9313;0,070075
1269,8955;0,0691276
1270,8597;0,0681778
1271,8240;0,0672329
1272,7882;0,0662977
1273,7524;0,0653733
1274,7167;0,0644595
1275,6809;0,0635583
1276,6451;0,0626761
1277,6094;0,0618208
1278,5736;0,0609973
1279,5378;0,0602046
1280,5021;0,0594371
1281,4663;0,0586901
1282,4305;0,0579651
1283,3948;0,05727
1284,3590;0,0566164
1285,3232;0,0560147
1286,2875;0,0554726
1287,2517;0,0549964
1288,2159;0,0545924
1289,1802;0,054267
1290,1444;0,0540232
1291,1086;0,0538595
1292,0729;0,0537701
1293,0371;0,0537494
1294,0013;0,0537956
1294,9656;0,0539119
1295,9298;0,0541036
1296,8940;0,0543746
1297,8583;0,0547242
1298,8225;0,0551469
1299,7867;0,0556347
1300,7510;0,0561787
1301,7152;0,0567704
1302,6794;0,0574028
1303,6437;0,05807
1304,6079;0,0587677
1305,5721;0,0594932
1306,5364;0,0602444
1307,5006;0,0610194
1308,4648;0,061816
1309,4291;0,0626299
1310,3933;0,0634511
1311,3575;0,064261
1312,3218;0,0650303
1313,2860;0,0657229
1314,2502;0,066303
1315,2145;0,0667422
1316,1787;0,0670232
1317,1429;0,0671415
1318,1072;0,0671075
1319,0714;0,0669487
1320,0356;0,0667061
1320,9999;0,0664244
1321,9641;0,0661407
1322,9283;0,0658784
1323,8926;0,0656487
1324,8568;0,0654552
1325,8210;0,0652977
1326,7853;0,0651733
1327,7495;0,0650759
1328,7137;0,064995
1329,6780;0,0649173
1330,6422;0,0648289
1331,6064;0,0647197
1332,5707;0,0645852
1333,5349;0,0644239
1334,4991;0,0642287
1335,4634;0,0639791
1336,4276;0,0636398
1337,3918;0,0631746
1338,3561;0,0625745
1339,3203;0,0618841
1340,2845;0,0611926
1341,2488;0,0605862
1342,2130;0,0601072
1343,1772;0,059752
1344,1415;0,0594948
1345,1057;0,05931
1346,0699;0,0591837
1347,0342;0,0591151
1347,9984;0,0591129
1348,9626;0,0591889
1349,9269;0,059351
1350,8911;0,0595989
1351,8553;0,0599234
1352,8196;0,0603112
1353,7838;0,0607527
1354,7480;0,0612461
1355,7123;0,0617959
1356,6765;0,0624042
1357,6407;0,0630635
1358,6050;0,0637546
1359,5692;0,0644481
