TITLE;
DATA TYPE;INFRARED SPECTRUM
ORIGIN;JASCO
OWNER;
DATE;25/02/28
TIME;17:07:42
SPECTROMETER/DATA SYSTEM;
LOCALE;9226
RESOLUTION;
DELTAX;0,964233
XUNITS;1/CM
YUNITS;ABSORBANCE
FIRSTX;  399,1927
LASTX; 4000,6047
NPOINTS;    3736
FIRSTY;     0,14106
MAXY;     0,20045
MINY;     0,01243
XYDATA
399,1927;0,14106
400,1569;0,142623
401,1211;0,142768
402,0854;0,142375
403,0496;0,142195
404,0138;0,142671
404,9781;0,143914
405,9423;0,145718
406,9065;0,14766
407,8708;0,149302
408,8350;0,150383
409,7992;0,150898
410,7635;0,15104
411,7277;0,151051
412,6919;0,151074
413,6562;0,151099
414,6204;0,15104
415,5846;0,150877
416,5489;0,150787
417,5131;0,151195
418,4773;0,152538
419,4416;0,154712
420,4058;0,156975
421,3700;0,158676
422,3343;0,159707
423,2985;0,160289
424,2627;0,160662
425,2270;0,160947
426,1912;0,161137
427,1554;0,161189
428,1197;0,161137
429,0839;0,161128
430,0481;0,16136
431,0124;0,161957
431,9766;0,162884
432,9408;0,163949
433,9051;0,164917
434,8693;0,165628
435,8335;0,166061
436,7978;0,166285
437,7620;0,166376
438,7262;0,166364
439,6905;0,166243
440,6547;0,166028
441,6189;0,165786
442,5832;0,165621
443,5474;0,165607
444,5116;0,165736
445,4759;0,165934
446,4401;0,166135
447,4043;0,16633
448,3686;0,16655
449,3328;0,1668
450,2970;0,167007
451,2613;0,167035
452,2255;0,16677
453,1897;0,166218
454,1540;0,165541
455,1182;0,165004
456,0824;0,164852
457,0467;0,165162
458,0109;0,165747
458,9751;0,166262
459,9394;0,166456
460,9036;0,166333
461,8678;0,166085
462,8321;0,165931
463,7963;0,165982
464,7605;0,166194
465,7248;0,166393
466,6890;0,166372
467,6532;0,166016
468,6175;0,165355
469,5817;0,16456
470,5459;0,163869
471,5102;0,163488
472,4744;0,163478
473,4386;0,163708
474,4029;0,163943
475,3671;0,163993
476,3313;0,163807
477,2956;0,163456
478,2598;0,163065
479,2240;0,162739
480,1883;0,162518
481,1525;0,162382
482,1167;0,16229
483,0810;0,162219
484,0452;0,162185
485,0094;0,16222
485,9737;0,162343
486,9379;0,162537
487,9021;0,162764
488,8664;0,162985
489,8306;0,16316
490,7948;0,163257
491,7591;0,163256
492,7233;0,163157
493,6875;0,162998
494,6518;0,162848
495,6160;0,162775
496,5802;0,162813
497,5445;0,162937
498,5087;0,16307
499,4729;0,163119
500,4372;0,163028
501,4014;0,162812
502,3656;0,162558
503,3299;0,162365
504,2941;0,162294
505,2583;0,162342
506,2226;0,162481
507,1868;0,162693
508,1510;0,162987
509,1153;0,163376
510,0795;0,163838
511,0437;0,164299
512,0080;0,164668
512,9722;0,164881
513,9365;0,164943
514,9007;0,16493
515,8649;0,164959
516,8292;0,165123
517,7934;0,165436
518,7576;0,165818
519,7219;0,166151
520,6861;0,16635
521,6503;0,166406
522,6146;0,166365
523,5788;0,1663
524,5430;0,166274
525,5073;0,166313
526,4715;0,166397
527,4357;0,166473
528,4000;0,166489
529,3642;0,166414
530,3284;0,166245
531,2927;0,165988
532,2569;0,165654
533,2211;0,16526
534,1854;0,16483
535,1496;0,164394
536,1138;0,163983
537,0781;0,163609
538,0423;0,163255
539,0065;0,162892
539,9708;0,162496
540,9350;0,162079
541,8992;0,161687
542,8635;0,161383
543,8277;0,161212
544,7919;0,16118
545,7562;0,16126
546,7204;0,161407
547,6846;0,161592
548,6489;0,161807
549,6131;0,162056
550,5773;0,162335
551,5416;0,162623
552,5058;0,162897
553,4700;0,163144
554,4343;0,16338
555,3985;0,163627
556,3627;0,16389
557,3270;0,164122
558,2912;0,164232
559,2554;0,164115
560,2197;0,163707
561,1839;0,163023
562,1481;0,162156
563,1124;0,161245
564,0766;0,16041
565,0408;0,15972
566,0051;0,159175
566,9693;0,158737
567,9335;0,158359
568,8978;0,158018
569,8620;0,157717
570,8262;0,15747
571,7905;0,157282
572,7547;0,157137
573,7189;0,156998
574,6832;0,156815
575,6474;0,156547
576,6116;0,156176
577,5759;0,155717
578,5401;0,15521
579,5043;0,154704
580,4686;0,154245
581,4328;0,153864
582,3970;0,153582
583,3613;0,153403
584,3255;0,153318
585,2897;0,153304
586,2540;0,153322
587,2182;0,153328
588,1824;0,153284
589,1467;0,153174
590,1109;0,153009
591,0751;0,152821
592,0394;0,152645
593,0036;0,152503
593,9678;0,152386
594,9321;0,152263
595,8963;0,152095
596,8605;0,151857
597,8248;0,15155
598,7890;0,151204
599,7532;0,150864
600,7175;0,150575
601,6817;0,150356
602,6459;0,150195
603,6102;0,150056
604,5744;0,149892
605,5386;0,149656
606,5029;0,149317
607,4671;0,148864
608,4313;0,148314
609,3956;0,147707
610,3598;0,147095
611,3240;0,146522
612,2883;0,145998
613,2525;0,145499
614,2167;0,144975
615,1810;0,144375
616,1452;0,143676
617,1094;0,142893
618,0737;0,142068
619,0379;0,141241
620,0021;0,140433
620,9664;0,139638
621,9306;0,138846
622,8948;0,138053
623,8591;0,13727
624,8233;0,136517
625,7875;0,135809
626,7518;0,135163
627,7160;0,134591
628,6802;0,134096
629,6445;0,133669
630,6087;0,133282
631,5729;0,132896
632,5372;0,13248
633,5014;0,132021
634,4656;0,131531
635,4299;0,131035
636,3941;0,130547
637,3583;0,130065
638,3226;0,129575
639,2868;0,12907
640,2510;0,128566
641,2153;0,128087
642,1795;0,127649
643,1437;0,127239
644,1080;0,126825
645,0722;0,126375
646,0364;0,125885
647,0007;0,125388
647,9649;0,124933
648,9291;0,124565
649,8934;0,124295
650,8576;0,124103
651,8218;0,123958
652,7861;0,123845
653,7503;0,123771
654,7145;0,123751
655,6788;0,123793
656,6430;0,123887
657,6072;0,124003
658,5715;0,124116
659,5357;0,124212
660,4999;0,124296
661,4642;0,124376
662,4284;0,124455
663,3926;0,124515
664,3569;0,124515
665,3211;0,124372
666,2853;0,123952
667,2496;0,123125
668,2138;0,12196
669,1780;0,120817
670,1423;0,119961
671,1065;0,119294
672,0707;0,118598
673,0350;0,117722
673,9992;0,116619
674,9634;0,115338
675,9277;0,114002
676,8919;0,112745
677,8561;0,111635
678,8204;0,110662
679,7846;0,10978
680,7488;0,108962
681,7131;0,108212
682,6773;0,107549
683,6415;0,106991
684,6058;0,106541
685,5700;0,106191
686,5342;0,105918
687,4985;0,105685
688,4627;0,105452
689,4269;0,105198
690,3912;0,104933
691,3554;0,104689
692,3196;0,104495
693,2839;0,104358
694,2481;0,104257
695,2123;0,104159
696,1766;0,104035
697,1408;0,103869
698,1050;0,103658
699,0693;0,103402
700,0335;0,103104
700,9977;0,102776
701,9620;0,10244
702,9262;0,102122
703,8904;0,101847
704,8547;0,101619
705,8189;0,101421
706,7831;0,101215
707,7474;0,100962
708,7116;0,100634
709,6758;0,100217
710,6401;0,0997203
711,6043;0,0991661
712,5685;0,0985891
713,5328;0,0980255
714,4970;0,0975022
715,4612;0,0970587
716,4255;0,0966108
717,3897;0,0961604
718,3539;0,0956676
719,3182;0,0951005
720,2824;0,0944503
721,2466;0,0937375
722,2109;0,0930038
723,1751;0,0922927
724,1393;0,0916313
725,1036;0,0910213
726,0678;0,0904417
727,0320;0,089861
727,9963;0,089256
728,9605;0,0886268
729,9247;0,0879985
730,8890;0,0874065
731,8532;0,0868739
732,8174;0,0863971
733,7817;0,0859492
734,7459;0,0854999
735,7101;0,0850391
736,6744;0,0845853
737,6386;0,0841741
738,6028;0,0838348
739,5671;0,0835696
740,5313;0,0833514
741,4955;0,0831392
742,4598;0,0829009
743,4240;0,0826277
744,3882;0,082333
745,3525;0,082038
746,3167;0,0817564
747,2809;0,0814864
748,2452;0,0812146
749,2094;0,0809271
750,1736;0,0806199
751,1379;0,0803018
752,1021;0,0799897
753,0663;0,0796981
754,0306;0,0794308
754,9948;0,0791793
755,9590;0,0789283
756,9233;0,0786643
757,8875;0,0783822
758,8517;0,0780857
759,8160;0,0777826
760,7802;0,0774788
761,7444;0,0771741
762,7087;0,0768641
763,6729;0,0765442
764,6371;0,0762144
765,6014;0,0758805
766,5656;0,0755507
767,5298;0,07523
768,4941;0,0749152
769,4583;0,0745951
770,4225;0,0742571
771,3868;0,0738953
772,3510;0,0735168
773,3152;0,07314
774,2795;0,0727862
775,2437;0,0724703
776,2079;0,0721947
777,1722;0,0719507
778,1364;0,0717226
779,1006;0,0714922
780,0649;0,0712405
781,0291;0,0709498
781,9933;0,0706086
782,9576;0,0702193
783,9218;0,0698036
784,8860;0,0693971
785,8503;0,0690363
786,8145;0,068742
787,7787;0,0685111
788,7430;0,0683216
789,7072;0,0681465
790,6714;0,0679672
791,6357;0,0677784
792,5999;0,0675835
793,5641;0,0673881
794,5284;0,0671959
795,4926;0,06701
796,4568;0,0668348
797,4211;0,0666744
798,3853;0,0665281
799,3495;0,0663882
800,3138;0,0662424
801,2780;0,0660817
802,2422;0,0659062
803,2065;0,0657244
804,1707;0,0655461
805,1349;0,0653742
806,0992;0,0652036
807,0634;0,0650275
808,0276;0,0648461
808,9919;0,0646701
809,9561;0,0645156
810,9203;0,0643927
811,8846;0,0642979
812,8488;0,0642145
813,8130;0,0641228
814,7773;0,064012
815,7415;0,0638865
816,7057;0,0637635
817,6700;0,063662
818,6342;0,0635923
819,5984;0,0635499
820,5627;0,063518
821,5269;0,0634768
822,4911;0,0634144
823,4554;0,0633342
824,4196;0,0632551
825,3839;0,0632033
826,3481;0,0631993
827,3123;0,0632462
828,2766;0,0633259
829,2408;0,0634055
830,2050;0,0634512
831,1693;0,0634416
832,1335;0,0633743
833,0977;0,0632606
834,0620;0,0631163
835,0262;0,0629525
835,9904;0,0627742
836,9547;0,0625846
837,9189;0,0623916
838,8831;0,0622086
839,8474;0,0620499
840,8116;0,0619241
841,7758;0,0618291
842,7401;0,0617546
843,7043;0,0616878
844,6685;0,0616209
845,6328;0,0615536
846,5970;0,0614921
847,5612;0,0614441
848,5255;0,061415
849,4897;0,0614046
850,4539;0,0614075
851,4182;0,0614156
852,3824;0,0614215
853,3466;0,0614219
854,3109;0,0614184
855,2751;0,0614152
856,2393;0,0614156
857,2036;0,06142
858,1678;0,0614265
859,1320;0,0614344
860,0963;0,0614469
861,0605;0,0614704
862,0247;0,0615092
862,9890;0,0615604
863,9532;0,0616132
864,9174;0,0616534
865,8817;0,0616706
866,8459;0,0616638
867,8101;0,0616405
868,7744;0,0616122
869,7386;0,0615892
870,7028;0,0615782
871,6671;0,0615828
872,6313;0,0616033
873,5955;0,0616351
874,5598;0,0616663
875,5240;0,0616795
876,4882;0,0616581
877,4525;0,0615972
878,4167;0,061511
879,3809;0,0614327
880,3452;0,0614052
881,3094;0,0614667
882,2736;0,0616396
883,2379;0,0619255
884,2021;0,0623093
885,1663;0,0627687
886,1306;0,0632827
887,0948;0,0638376
888,0590;0,0644276
889,0233;0,0650515
889,9875;0,0657077
890,9517;0,0663893
891,9160;0,067081
892,8802;0,0677573
893,8444;0,0683847
894,8087;0,0689261
895,7729;0,0693478
896,7371;0,0696278
897,7014;0,0697606
898,6656;0,0697581
899,6298;0,069644
900,5941;0,0694449
901,5583;0,0691833
902,5225;0,0688753
903,4868;0,0685343
904,4510;0,068177
905,4152;0,0678275
906,3795;0,0675149
907,3437;0,0672659
908,3079;0,0670976
909,2722;0,0670133
910,2364;0,0670044
911,2007;0,067057
912,1649;0,0671581
913,1292;0,0673005
914,0934;0,0674823
915,0576;0,0677046
916,0219;0,0679662
916,9861;0,0682616
917,9503;0,0685806
918,9146;0,0689119
919,8788;0,0692476
920,8430;0,0695853
921,8073;0,069926
922,7715;0,0702681
923,7357;0,0706024
924,7000;0,0709122
925,6642;0,0711792
926,6284;0,071394
927,5927;0,0715607
928,5569;0,0716957
929,5211;0,0718184
930,4854;0,0719411
931,4496;0,072066
932,4138;0,0721891
933,3781;0,0723089
934,3423;0,0724317
935,3065;0,0725705
936,2708;0,0727379
937,2350;0,0729404
938,1992;0,0731776
939,1635;0,0734476
940,1277;0,0737531
941,0919;0,0741036
942,0562;0,0745117
943,0204;0,0749881
943,9846;0,0755384
944,9489;0,0761645
945,9131;0,0768678
946,8773;0,0776508
947,8416;0,0785149
948,8058;0,0794575
949,7700;0,0804706
950,7343;0,0815438
951,6985;0,0826697
952,6627;0,083848
953,6270;0,0850853
954,5912;0,086392
955,5554;0,0877774
956,5197;0,089245
957,4839;0,090789
958,4481;0,0923928
959,4124;0,0940315
960,3766;0,0956789
961,3408;0,097317
962,3051;0,0989441
963,2693;0,100575
964,2335;0,102233
965,1978;0,103935
966,1620;0,105682
967,1262;0,107467
968,0905;0,109279
969,0547;0,111121
970,0189;0,113009
970,9832;0,114969
971,9474;0,117029
972,9116;0,119206
973,8759;0,121513
974,8401;0,123962
975,8043;0,126566
976,7686;0,129335
977,7328;0,132266
978,6970;0,135334
979,6613;0,138487
980,6255;0,141654
981,5897;0,144753
982,5540;0,147704
983,5182;0,15044
984,4824;0,152916
985,4467;0,155114
986,4109;0,157041
987,3751;0,158722
988,3394;0,160198
989,3036;0,161506
990,2678;0,162682
991,2321;0,163748
992,1963;0,164716
993,1605;0,165588
994,1248;0,166366
995,0890;0,167058
996,0532;0,167681
997,0175;0,16826
997,9817;0,16882
998,9459;0,169383
999,9102;0,169961
1000,8744;0,170563
1001,8386;0,171197
1002,8029;0,171881
1003,7671;0,172642
1004,7313;0,173518
1005,6956;0,174544
1006,6598;0,175757
1007,6240;0,177176
1008,5883;0,178807
1009,5525;0,18063
1010,5167;0,182603
1011,4810;0,184664
1012,4452;0,186747
1013,4094;0,188786
1014,3737;0,190724
1015,3379;0,192509
1016,3021;0,194095
1017,2664;0,195444
1018,2306;0,196534
1019,1948;0,19737
1020,1591;0,197982
1021,1233;0,198427
1022,0875;0,198766
1023,0518;0,199052
1024,0160;0,19932
1024,9802;0,199582
1025,9445;0,199837
1026,9087;0,200075
1027,8729;0,200278
1028,8372;0,200417
1029,8014;0,20045
1030,7656;0,200325
1031,7299;0,199986
1032,6941;0,199388
1033,6583;0,198506
1034,6226;0,19735
1035,5868;0,195973
1036,5510;0,19446
1037,5153;0,192921
1038,4795;0,191467
1039,4437;0,190183
1040,4080;0,189118
1041,3722;0,188271
1042,3364;0,187607
1043,3007;0,18707
1044,2649;0,186597
1045,2291;0,186128
1046,1934;0,185609
1047,1576;0,185001
1048,1218;0,184274
1049,0861;0,183413
1050,0503;0,182412
1051,0145;0,181271
1051,9788;0,179991
1052,9430;0,178574
1053,9072;0,177031
1054,8715;0,175376
1055,8357;0,173619
1056,7999;0,171753
1057,7642;0,169748
1058,7284;0,167561
1059,6926;0,16516
1060,6569;0,162556
1061,6211;0,159815
1062,5853;0,157042
1063,5496;0,154356
1064,5138;0,15185
1065,4780;0,149579
1066,4423;0,147558
1067,4065;0,145776
1068,3707;0,144214
1069,3350;0,142841
1070,2992;0,141621
1071,2634;0,140505
1072,2277;0,139432
1073,1919;0,138344
1074,1561;0,13719
1075,1204;0,13594
1076,0846;0,134579
1077,0488;0,133115
1078,0131;0,131567
1078,9773;0,12997
1079,9415;0,128364
1080,9058;0,126794
1081,8700;0,125302
1082,8342;0,123921
1083,7985;0,12267
1084,7627;0,121555
1085,7269;0,120567
1086,6912;0,11969
1087,6554;0,118911
1088,6196;0,118217
1089,5839;0,117608
1090,5481;0,117085
1091,5123;0,116655
1092,4766;0,116326
1093,4408;0,116101
1094,4050;0,11598
1095,3693;0,115959
1096,3335;0,116023
1097,2977;0,116155
1098,2620;0,116329
1099,2262;0,116525
1100,1904;0,116724
1101,1547;0,116908
1102,1189;0,117063
1103,0831;0,117164
1104,0474;0,117184
1105,0116;0,117097
1105,9758;0,116889
1106,9401;0,116564
1107,9043;0,116141
1108,8685;0,11564
1109,8328;0,115069
1110,7970;0,114414
1111,7612;0,113649
1112,7255;0,112749
1113,6897;0,111715
1114,6539;0,11058
1115,6182;0,109406
1116,5824;0,10826
1117,5466;0,107196
1118,5109;0,106236
1119,4751;0,105368
1120,4393;0,104549
1121,4036;0,103722
1122,3678;0,102825
1123,3320;0,101804
1124,2963;0,100619
1125,2605;0,0992522
1126,2247;0,0977094
1127,1890;0,0960199
1128,1532;0,09423
1129,1174;0,0923908
1130,0817;0,0905471
1131,0459;0,0887316
1132,0101;0,0869673
1132,9744;0,0852765
1133,9386;0,0836885
1134,9028;0,0822419
1135,8671;0,0809781
1136,8313;0,07993
1137,7955;0,0791137
1138,7598;0,0785256
1139,7240;0,078148
1140,6882;0,077957
1141,6525;0,0779285
1142,6167;0,0780397
1143,5809;0,0782672
1144,5452;0,0785845
1145,5094;0,0789632
1146,4736;0,079377
1147,4379;0,0798066
1148,4021;0,0802417
1149,3663;0,0806794
1150,3306;0,0811184
1151,2948;0,0815529
1152,2590;0,0819679
1153,2233;0,0823384
1154,1875;0,0826318
1155,1517;0,0828116
1156,1160;0,0828413
1157,0802;0,0826851
1158,0444;0,0823083
1159,0087;0,0816769
1159,9729;0,0807589
1160,9371;0,0795301
1161,9014;0,0779812
1162,8656;0,0761254
1163,8298;0,0740029
1164,7941;0,0716787
1165,7583;0,0692359
1166,7225;0,0667639
1167,6868;0,0643462
1168,6510;0,0620498
1169,6152;0,0599203
1170,5795;0,0579819
1171,5437;0,0562422
1172,5079;0,0546983
1173,4722;0,0533405
1174,4364;0,0521545
1175,4006;0,0511224
1176,3649;0,0502246
1177,3291;0,0494437
1178,2933;0,0487682
1179,2576;0,0481933
1180,2218;0,0477174
1181,1860;0,0473369
1182,1503;0,0470423
1183,1145;0,0468191
1184,0787;0,0466528
1185,0430;0,0465344
1186,0072;0,0464633
1186,9714;0,0464465
1187,9357;0,0464948
1188,8999;0,046618
1189,8641;0,0468219
1190,8284;0,0471071
1191,7926;0,0474694
1192,7568;0,0479016
1193,7211;0,048395
1194,6853;0,0489411
1195,6495;0,0495312
1196,6138;0,0501556
1197,5780;0,0508025
1198,5422;0,0514594
1199,5065;0,0521068
1200,4707;0,0527608
1201,4349;0,0534125
1202,3992;0,0540662
1203,3634;0,0547229
1204,3276;0,0553762
1205,2919;0,0560133
1206,2561;0,0566226
1207,2203;0,0572029
1208,1846;0,0577688
1209,1488;0,0583485
1210,1130;0,0589749
1211,0773;0,0596736
1212,0415;0,0604541
1213,0057;0,0613083
1213,9700;0,062216
1214,9342;0,0631529
1215,8984;0,0640979
1216,8627;0,0650349
1217,8269;0,0659529
1218,7911;0,0668436
1219,7554;0,0677015
1220,7196;0,068524
1221,6838;0,0693129
1222,6481;0,070073
1223,6123;0,0708096
1224,5765;0,0715247
1225,5408;0,0722155
1226,5050;0,0728743
1227,4692;0,0734916
1228,4335;0,0740601
1229,3977;0,0745767
1230,3619;0,0750421
1231,3262;0,0754582
1232,2904;0,0758257
1233,2546;0,0761429
1234,2189;0,0764069
1235,1831;0,0766167
1236,1473;0,0767755
1237,1116;0,0768899
1238,0758;0,0769674
1239,0400;0,0770116
1240,0043;0,0770203
1240,9685;0,076986
1241,9327;0,0768998
1242,8970;0,0767551
1243,8612;0,0765505
1244,8254;0,0762888
1245,7897;0,0759754
1246,7539;0,0756163
1247,7181;0,0752179
1248,6824;0,0747879
1249,6466;0,0743351
1250,6108;0,0738684
1251,5751;0,0733955
1252,5393;0,0729201
1253,5035;0,0724423
1254,4678;0,0719587
1255,4320;0,0714646
1256,3962;0,0709564
1257,3605;0,0704328
1258,3247;0,0698949
1259,2889;0,0693444
1260,2532;0,0687809
1261,2174;0,0682
1262,1816;0,0675938
1263,1459;0,0669546
1264,1101;0,0662791
1265,0743;0,0655703
1266,0386;0,0648356
1267,0028;0,0640832
1267,9670;0,0633187
1268,9313;0,0625452
1269,8955;0,0617653
1270,8597;0,0609842
1271,8240;0,0602083
1272,7882;0,0594434
1273,7524;0,0586916
1274,7167;0,057953
1275,6809;0,0572278
1276,6451;0,0565195
1277,6094;0,0558334
1278,5736;0,0551735
1279,5378;0,0545393
1280,5021;0,0539258
1281,4663;0,0533287
1282,4305;0,0527485
1283,3948;0,0521928
1284,3590;0,0516737
1285,3232;0,0512024
1286,2875;0,0507857
1287,2517;0,0504252
1288,2159;0,05012
1289,1802;0,0498697
1290,1444;0,0496756
1291,1086;0,0495397
1292,0729;0,0494642
1293,0371;0,0494501
1294,0013;0,0494981
1294,9656;0,049609
1295,9298;0,0497833
1296,8940;0,0500202
1297,8583;0,0503161
1298,8225;0,0506644
1299,7867;0,0510566
1300,7510;0,0514838
1301,7152;0,0519392
1302,6794;0,0524199
1303,6437;0,0529274
1304,6079;0,0534652
1305,5721;0,054036
1306,5364;0,0546377
1307,5006;0,0552628
1308,4648;0,0559002
1309,4291;0,0565386
1310,3933;0,0571681
1311,3575;0,0577796
1312,3218;0,0583608
1313,2860;0,0588948
1314,2502;0,0593599
1315,2145;0,0597331
1316,1787;0,0599953
1317,1429;0,0601367
1318,1072;0,0601616
1319,0714;0,0600901
1320,0356;0,0599539
1320,9999;0,0597863
1321,9641;0,0596131
1322,9283;0,0594501
1323,8926;0,0593059
1324,8568;0,0591863
1325,8210;0,0590947
1326,7853;0,0590306
1327,7495;0,0589866
1328,7137;0,0589483
1329,6780;0,058898
1330,6422;0,0588212
1331,6064;0,0587108
1332,5707;0,0585683
1333,5349;0,0583976
1334,4991;0,0581965
1335,4634;0,0579505
1336,4276;0,0576341
1337,3918;0,0572244
1338,3561;0,0567234
1339,3203;0,0561742
1340,2845;0,0556475
1341,2488;0,0552031
1342,2130;0,054862
1343,1772;0,0546121
1344,1415;0,054429
1345,1057;0,0542932
1346,0699;0,0541964
1347,0342;0,0541408
1347,9984;0,0541345
1348,9626;0,054187
1349,9269;0,0543053
1350,8911;0,0544912
1351,8553;0,0547412
1352,8196;0,055048
1353,7838;0,0554047
1354,7480;0,0558065
1355,7123;0,0562496
1356,6765;0,0567286
1357,6407;0,0572337
