TITLE;
DATA TYPE;INFRARED SPECTRUM
ORIGIN;JASCO
OWNER;
DATE;25/03/18
TIME;18:36:09
SPECTROMETER/DATA SYSTEM;
LOCALE;9226
RESOLUTION;
DELTAX;0,964233
XUNITS;1/CM
YUNITS;ABSORBANCE
FIRSTX;  399,1927
LASTX; 4000,6047
NPOINTS;    3736
FIRSTY;     0,22148
MAXY;     0,24695
MINY;    -0,00394
XYDATA
399,1927;0,221483
400,1569;0,217166
401,1211;0,211635
402,0854;0,206159
403,0496;0,201537
404,0138;0,198237
404,9781;0,196469
405,9423;0,196151
406,9065;0,196905
407,8708;0,198211
408,8350;0,19963
409,7992;0,200909
410,7635;0,201925
411,7277;0,202593
412,6919;0,202873
413,6562;0,202869
414,6204;0,202905
415,5846;0,203539
416,5489;0,205456
417,5131;0,209071
418,4773;0,213674
419,4416;0,217186
420,4058;0,217992
421,3700;0,216478
422,3343;0,214016
423,2985;0,211672
424,2627;0,209923
425,2270;0,208802
426,1912;0,208088
427,1554;0,207505
428,1197;0,206889
429,0839;0,20625
430,0481;0,20573
431,0124;0,205506
431,9766;0,205698
432,9408;0,206297
433,9051;0,207136
434,8693;0,207918
435,8335;0,208338
436,7978;0,208229
437,7620;0,207664
438,7262;0,206905
439,6905;0,206252
440,6547;0,205896
441,6189;0,205836
442,5832;0,2059
443,5474;0,205857
444,5116;0,205574
445,4759;0,205101
446,4401;0,204604
447,4043;0,204243
448,3686;0,204077
449,3328;0,20404
450,2970;0,203974
451,2613;0,203713
452,2255;0,203165
453,1897;0,202367
454,1540;0,201457
455,1182;0,200607
456,0824;0,199941
457,0467;0,199485
458,0109;0,199157
458,9751;0,198849
459,9394;0,198517
460,9036;0,198201
461,8678;0,197958
462,8321;0,19781
463,7963;0,197723
464,7605;0,19765
465,7248;0,197572
466,6890;0,197528
467,6532;0,197578
468,6175;0,197733
469,5817;0,197905
470,5459;0,197916
471,5102;0,197576
472,4744;0,196821
473,4386;0,195786
474,4029;0,194719
475,3671;0,193819
476,3313;0,193157
477,2956;0,192703
478,2598;0,192406
479,2240;0,192251
480,1883;0,192255
481,1525;0,192431
482,1167;0,192739
483,0810;0,193076
484,0452;0,193317
485,0094;0,193401
485,9737;0,193372
486,9379;0,193356
487,9021;0,19347
488,8664;0,193756
489,8306;0,194164
490,7948;0,19458
491,7591;0,194887
492,7233;0,195027
493,6875;0,195024
494,6518;0,194957
495,6160;0,194918
496,5802;0,194974
497,5445;0,19516
498,5087;0,195473
499,4729;0,195871
500,4372;0,196269
501,4014;0,196574
502,3656;0,196735
503,3299;0,196789
504,2941;0,196851
505,2583;0,197044
506,2226;0,19742
507,1868;0,197932
508,1510;0,198453
509,1153;0,198857
510,0795;0,1991
511,0437;0,199245
512,0080;0,199434
512,9722;0,199808
513,9365;0,200446
514,9007;0,20132
515,8649;0,202281
516,8292;0,203091
517,7934;0,203518
518,7576;0,203468
519,7219;0,203048
520,6861;0,2025
521,6503;0,202072
522,6146;0,201919
523,5788;0,20207
524,5430;0,202434
525,5073;0,202838
526,4715;0,2031
527,4357;0,203122
528,4000;0,202933
529,3642;0,20264
530,3284;0,202352
531,2927;0,202129
532,2569;0,201961
533,2211;0,201783
534,1854;0,20152
535,1496;0,201128
536,1138;0,200622
537,0781;0,20007
538,0423;0,19956
539,0065;0,199165
539,9708;0,198929
540,9350;0,198867
541,8992;0,198983
542,8635;0,199273
543,8277;0,199706
544,7919;0,200212
545,7562;0,200683
546,7204;0,201006
547,6846;0,201117
548,6489;0,201036
549,6131;0,200847
550,5773;0,200662
551,5416;0,200569
552,5058;0,200618
553,4700;0,200824
554,4343;0,201175
555,3985;0,201627
556,3627;0,202084
557,3270;0,202395
558,2912;0,202387
559,2554;0,201931
560,2197;0,201
561,1839;0,199702
562,1481;0,198241
563,1124;0,196842
564,0766;0,19566
565,0408;0,194744
566,0051;0,194046
566,9693;0,193478
567,9335;0,192972
568,8978;0,192513
569,8620;0,19213
570,8262;0,19186
571,7905;0,19171
572,7547;0,191652
573,7189;0,191636
574,6832;0,191605
575,6474;0,191523
576,6116;0,191377
577,5759;0,191182
578,5401;0,190973
579,5043;0,19079
580,4686;0,190661
581,4328;0,19058
582,3970;0,190506
583,3613;0,190373
584,3255;0,190133
585,2897;0,189796
586,2540;0,189445
587,2182;0,189198
588,1824;0,189148
589,1467;0,189308
590,1109;0,189588
591,0751;0,189832
592,0394;0,189893
593,0036;0,189707
593,9678;0,189313
594,9321;0,188813
595,8963;0,188296
596,8605;0,187794
597,8248;0,187293
598,7890;0,18676
599,7532;0,186186
600,7175;0,185603
601,6817;0,185059
602,6459;0,184592
603,6102;0,184202
604,5744;0,183857
605,5386;0,183511
606,5029;0,18312
607,4671;0,182654
608,4313;0,182092
609,3956;0,181432
610,3598;0,180713
611,3240;0,180028
612,2883;0,179518
613,2525;0,179311
614,2167;0,179437
615,1810;0,179756
616,1452;0,179959
617,1094;0,179688
618,0737;0,178722
619,0379;0,177122
620,0021;0,175195
620,9664;0,173326
621,9306;0,171798
622,8948;0,170702
623,8591;0,16995
624,8233;0,169287
625,7875;0,168685
626,7518;0,16806
627,7160;0,167422
628,6802;0,166819
629,6445;0,166298
630,6087;0,165856
631,5729;0,165454
632,5372;0,165035
633,5014;0,164555
634,4656;0,164013
635,4299;0,163455
636,3941;0,162952
637,3583;0,162565
638,3226;0,162308
639,2868;0,162149
640,2510;0,162027
641,2153;0,161893
642,1795;0,161734
643,1437;0,161575
644,1080;0,161445
645,0722;0,161345
646,0364;0,161231
647,0007;0,161033
647,9649;0,160697
648,9291;0,160218
649,8934;0,159653
650,8576;0,159097
651,8218;0,158646
652,7861;0,158374
653,7503;0,158314
654,7145;0,158444
655,6788;0,158688
656,6430;0,158941
657,6072;0,15912
658,5715;0,159205
659,5357;0,159215
660,4999;0,159126
661,4642;0,158804
662,4284;0,157995
663,3926;0,15644
664,3569;0,154077
665,3211;0,151345
666,2853;0,149348
667,2496;0,149348
668,2138;0,151223
669,1780;0,153107
670,1423;0,153842
671,1065;0,153619
672,0707;0,152665
673,0350;0,151056
673,9992;0,149025
674,9634;0,146947
675,9277;0,145123
676,8919;0,143621
677,8561;0,142322
678,8204;0,141085
679,7846;0,139862
680,7488;0,138685
681,7131;0,137607
682,6773;0,136635
683,6415;0,135748
684,6058;0,134922
685,5700;0,134153
686,5342;0,133447
687,4985;0,132797
688,4627;0,132195
689,4269;0,131607
690,3912;0,131012
691,3554;0,130417
692,3196;0,129836
693,2839;0,12928
694,2481;0,128749
695,2123;0,128233
696,1766;0,127717
697,1408;0,127185
698,1050;0,126628
699,0693;0,12605
700,0335;0,125466
700,9977;0,124897
701,9620;0,124348
702,9262;0,123811
703,8904;0,123233
704,8547;0,122606
705,8189;0,121939
706,7831;0,121263
707,7474;0,120616
708,7116;0,12001
709,6758;0,119422
710,6401;0,118799
711,6043;0,118088
712,5685;0,117274
713,5328;0,116409
714,4970;0,115597
715,4612;0,11342
716,4255;0,113338
717,3897;0,113564
718,3539;0,113838
719,3182;0,113793
720,2824;0,113132
721,2466;0,111799
722,2109;0,110007
723,1751;0,108114
724,1393;0,106433
725,1036;0,105117
726,0678;0,10415
727,0320;0,103412
727,9963;0,102767
728,9605;0,102125
729,9247;0,101459
730,8890;0,100782
731,8532;0,100117
732,8174;0,0994827
733,7817;0,0988857
734,7459;0,0983304
735,7101;0,0978205
736,6744;0,0973579
737,6386;0,0969393
738,6028;0,0965537
739,5671;0,0961813
740,5313;0,0957971
741,4955;0,0953768
742,4598;0,0949029
743,4240;0,0943696
744,3882;0,0937833
745,3525;0,093161
746,3167;0,0925257
747,2809;0,0919025
748,2452;0,091312
749,2094;0,090763
750,1736;0,0902469
751,1379;0,0897386
752,1021;0,0892067
753,0663;0,0886304
754,0306;0,0880126
754,9948;0,0873826
755,9590;0,0867825
756,9233;0,0862479
757,8875;0,0857923
758,8517;0,0854039
759,8160;0,0850553
760,7802;0,084717
761,7444;0,0843667
762,7087;0,083992
763,6729;0,0835877
764,6371;0,0831549
765,6014;0,0827034
766,5656;0,082254
767,5298;0,0818369
768,4941;0,0814807
769,4583;0,0811991
770,4225;0,0809803
771,3868;0,0807894
772,3510;0,0805822
773,3152;0,0803249
774,2795;0,0800078
775,2437;0,0796466
776,2079;0,0792708
777,1722;0,0789066
778,1364;0,0785642
779,1006;0,0782356
780,0649;0,077901
781,0291;0,0775395
781,9933;0,077138
782,9576;0,0766958
783,9218;0,0762241
784,8860;0,0757438
785,8503;0,0752803
786,8145;0,0748567
787,7787;0,0744876
788,7430;0,074175
789,7072;0,0739089
790,6714;0,0736727
791,6357;0,0734505
792,5999;0,0732324
793,5641;0,0730143
794,5284;0,0727948
795,4926;0,0725718
796,4568;0,0723422
797,4211;0,0721046
798,3853;0,0718621
799,3495;0,0716225
800,3138;0,0713943
801,2780;0,0711821
802,2422;0,0709848
803,2065;0,0707964
804,1707;0,07061
805,1349;0,07042
806,0992;0,070223
807,0634;0,0700177
808,0276;0,0698056
808,9919;0,0695926
809,9561;0,0693892
810,9203;0,0692079
811,8846;0,0690562
812,8488;0,0689315
813,8130;0,0688192
814,7773;0,0686982
815,7415;0,0685495
816,7057;0,0683654
817,6700;0,0681519
818,6342;0,067926
819,5984;0,0677093
820,5627;0,0675202
821,5269;0,0673678
822,4911;0,0672485
823,4554;0,0671475
824,4196;0,0670433
825,3839;0,0669163
826,3481;0,0667563
827,3123;0,0665669
828,2766;0,0663625
829,2408;0,0661608
830,2050;0,0659748
831,1693;0,0658074
832,1335;0,0656518
833,0977;0,0654941
834,0620;0,065317
835,0262;0,0651035
835,9904;0,064841
836,9547;0,064526
837,9189;0,0641686
838,8831;0,0637922
839,8474;0,0634281
840,8116;0,0631051
841,7758;0,0628396
842,7401;0,0626311
843,7043;0,0624653
844,6685;0,0623231
845,6328;0,0621899
846,5970;0,0620604
847,5612;0,061939
848,5255;0,0618345
849,4897;0,0617544
850,4539;0,0617015
851,4182;0,0616727
852,3824;0,0616611
853,3466;0,0616577
854,3109;0,0616525
855,2751;0,0616339
856,2393;0,0615889
857,2036;0,0615064
858,1678;0,0613823
859,1320;0,0612249
860,0963;0,061055
861,0605;0,0608997
862,0247;0,0607825
862,9890;0,0607145
863,9532;0,0606923
864,9174;0,0607026
865,8817;0,0607312
866,8459;0,060769
867,8101;0,0608148
868,7744;0,0608727
869,7386;0,0609483
870,7028;0,0610442
871,6671;0,0611565
872,6313;0,0612734
873,5955;0,0613767
874,5598;0,0614484
875,5240;0,0614792
876,4882;0,0614752
877,4525;0,0614577
878,4167;0,061455
879,3809;0,0614905
880,3452;0,0615755
881,3094;0,0617115
882,2736;0,0618993
883,2379;0,0621469
884,2021;0,0624695
885,1663;0,0628817
886,1306;0,0633868
887,0948;0,0639736
888,0590;0,0646219
889,0233;0,0653126
889,9875;0,0660344
890,9517;0,0667815
891,9160;0,0675447
892,8802;0,068303
893,8444;0,0690214
894,8087;0,0696561
895,7729;0,070164
896,7371;0,0705105
897,7014;0,0706739
898,6656;0,0706466
899,6298;0,0704357
900,5941;0,0700621
901,5583;0,069559
902,5225;0,0689669
903,4868;0,0683286
904,4510;0,0676838
905,4152;0,0670667
906,3795;0,0665046
907,3437;0,0660173
908,3079;0,0656162
909,2722;0,0653049
910,2364;0,0650807
911,2007;0,0649382
912,1649;0,0648717
913,1292;0,064875
914,0934;0,0649393
915,0576;0,0650518
916,0219;0,0651967
916,9861;0,0653594
917,9503;0,0655308
918,9146;0,0657079
919,8788;0,0658917
920,8430;0,0660834
921,8073;0,0662824
922,7715;0,0664857
923,7357;0,0666894
924,7000;0,0668889
925,6642;0,067079
926,6284;0,0672547
927,5927;0,0674141
928,5569;0,0675607
929,5211;0,0677037
930,4854;0,0678535
931,4496;0,0680157
932,4138;0,0681875
933,3781;0,0683601
934,3423;0,0685264
935,3065;0,0686897
936,2708;0,0688667
937,2350;0,0690834
938,1992;0,069365
939,1635;0,0697258
940,1277;0,0701643
941,0919;0,0706657
942,0562;0,0712105
943,0204;0,0717847
943,9846;0,0723863
944,9489;0,0730252
945,9131;0,0737173
946,8773;0,0744754
947,8416;0,0753031
948,8058;0,0761951
949,7700;0,0771427
950,7343;0,0781414
951,6985;0,0791947
952,6627;0,0803125
953,6270;0,0815055
954,5912;0,0827808
955,5554;0,084142
956,5197;0,0855907
957,4839;0,0871271
958,4481;0,0887474
959,4124;0,0904384
960,3766;0,0921757
961,3408;0,0939294
962,3051;0,0956756
963,2693;0,0974062
964,2335;0,0991328
965,1978;0,100879
966,1620;0,102669
967,1262;0,104518
968,0905;0,106433
969,0547;0,10842
970,0189;0,110498
970,9832;0,112696
971,9474;0,115057
972,9116;0,117621
973,8759;0,120413
974,8401;0,123445
975,8043;0,126714
976,7686;0,130214
977,7328;0,133934
978,6970;0,137859
979,6613;0,141952
980,6255;0,146139
981,5897;0,15031
982,5540;0,154328
983,5182;0,158061
984,4824;0,16141
985,4467;0,164333
986,4109;0,166847
987,3751;0,169009
988,3394;0,170891
989,3036;0,172554
990,2678;0,174043
991,2321;0,175384
992,1963;0,1766
993,1605;0,17772
994,1248;0,178783
995,0890;0,179831
996,0532;0,180898
997,0175;0,182001
997,9817;0,183131
998,9459;0,184264
999,9102;0,185376
1000,8744;0,186463
1001,8386;0,187545
1002,8029;0,188672
1003,7671;0,189899
1004,7313;0,191281
1005,6956;0,192856
1006,6598;0,194652
1007,6240;0,196697
1008,5883;0,199015
1009,5525;0,201625
1010,5167;0,20452
1011,4810;0,207651
1012,4452;0,210923
1013,4094;0,214205
1014,3737;0,217357
1015,3379;0,220263
1016,3021;0,222856
1017,2664;0,225124
1018,2306;0,227107
1019,1948;0,228872
1020,1591;0,230497
1021,1233;0,23205
1022,0875;0,233582
1023,0518;0,235131
1024,0160;0,23672
1024,9802;0,238354
1025,9445;0,24002
1026,9087;0,241677
1027,8729;0,243262
1028,8372;0,244689
1029,8014;0,245856
1030,7656;0,246649
1031,7299;0,246951
1032,6941;0,246659
1033,6583;0,245712
1034,6226;0,244123
1035,5868;0,241991
1036,5510;0,239498
1037,5153;0,236868
1038,4795;0,234324
1039,4437;0,232048
1040,4080;0,230159
1041,3722;0,228714
1042,3364;0,227712
1043,3007;0,227102
1044,2649;0,226791
1045,2291;0,22666
1046,1934;0,226577
1047,1576;0,226429
1048,1218;0,226137
1049,0861;0,22566
1050,0503;0,224979
1051,0145;0,224081
1051,9788;0,222952
1052,9430;0,221581
1053,9072;0,219966
1054,8715;0,218114
1055,8357;0,216023
1056,7999;0,213659
1057,7642;0,210954
1058,7284;0,207825
1059,6926;0,204223
1060,6569;0,200171
1061,6211;0,195784
1062,5853;0,191243
1063,5496;0,186749
1064,5138;0,182473
1065,4780;0,178524
1066,4423;0,174946
1067,4065;0,171728
1068,3707;0,168831
1069,3350;0,166203
1070,2992;0,163788
1071,2634;0,161532
1072,2277;0,15938
1073,1919;0,157276
1074,1561;0,155169
1075,1204;0,153017
1076,0846;0,1508
1077,0488;0,148529
1078,0131;0,146243
1078,9773;0,144002
1079,9415;0,141871
1080,9058;0,139904
1081,8700;0,138136
1082,8342;0,136581
1083,7985;0,135235
1084,7627;0,134081
1085,7269;0,133091
1086,6912;0,132235
1087,6554;0,131488
1088,6196;0,130841
1089,5839;0,1303
1090,5481;0,129882
1091,5123;0,129601
1092,4766;0,129466
1093,4408;0,129472
1094,4050;0,129608
1095,3693;0,129865
1096,3335;0,130235
1097,2977;0,130712
1098,2620;0,131282
1099,2262;0,13192
1100,1904;0,132591
1101,1547;0,133247
1102,1189;0,133843
1103,0831;0,134337
1104,0474;0,134696
1105,0116;0,134906
1105,9758;0,134965
1106,9401;0,134882
1107,9043;0,13466
1108,8685;0,134292
1109,8328;0,133746
1110,7970;0,132977
1111,7612;0,131947
1112,7255;0,130646
1113,6897;0,129117
1114,6539;0,127447
1115,6182;0,125752
1116,5824;0,12414
1117,5466;0,122684
1118,5109;0,121404
1119,4751;0,120265
1120,4393;0,119189
1121,4036;0,118075
1122,3678;0,116822
1123,3320;0,115348
1124,2963;0,113607
1125,2605;0,111603
1126,2247;0,109381
1127,1890;0,107007
1128,1532;0,104555
1129,1174;0,102079
1130,0817;0,0996139
1131,0459;0,0971784
1132,0101;0,0947906
1132,9744;0,0924783
1133,9386;0,0902819
1134,9028;0,0882495
1135,8671;0,0864272
1136,8313;0,0848516
1137,7955;0,0835449
1138,7598;0,0825137
1139,7240;0,0817497
1140,6882;0,0812316
1141,6525;0,0809285
1142,6167;0,0808049
1143,5809;0,0808271
1144,5452;0,080967
1145,5094;0,0812043
1146,4736;0,0815261
1147,4379;0,081926
1148,4021;0,0824023
1149,3663;0,0829567
1150,3306;0,0835895
1151,2948;0,0842942
1152,2590;0,0850525
1153,2233;0,0858316
1154,1875;0,0865877
1155,1517;0,0872703
1156,1160;0,0878262
1157,0802;0,0881983
1158,0444;0,0883217
1159,0087;0,0881208
1159,9729;0,0875145
1160,9371;0,0864302
1161,9014;0,0848242
1162,8656;0,0826984
1163,8298;0,0801077
1164,7941;0,0771545
1165,7583;0,0739739
1166,7225;0,070714
1167,6868;0,0675169
1168,6510;0,0645014
1169,6152;0,0617496
1170,5795;0,0592996
1171,5437;0,057148
1172,5079;0,0552628
1173,4722;0,0536013
1174,4364;0,0521271
1175,4006;0,0508189
1176,3649;0,049669
1177,3291;0,0486755
1178,2933;0,0478349
1179,2576;0,0471387
1180,2218;0,0465741
1181,1860;0,0461271
1182,1503;0,0457843
1183,1145;0,0455327
1184,0787;0,0453593
1185,0430;0,0452516
1186,0072;0,0451999
1186,9714;0,0451995
1187,9357;0,0452526
1188,8999;0,0453667
1189,8641;0,0455531
1190,8284;0,0458231
1191,7926;0,0461856
1192,7568;0,046645
1193,7211;0,0471994
1194,6853;0,0478391
1195,6495;0,0485469
1196,6138;0,0492997
1197,5780;0,0500736
1198,5422;0,05085
1199,5065;0,0512497
1200,4707;0,0520568
1201,4349;0,0528639
1202,3992;0,0536697
1203,3634;0,0544653
1204,3276;0,0552361
1205,2919;0,0559685
1206,2561;0,0566589
1207,2203;0,0573175
1208,1846;0,0579659
1209,1488;0,0586292
1210,1130;0,0593288
1211,0773;0,0600783
1212,0415;0,0608847
1213,0057;0,0617502
1213,9700;0,0626732
1214,9342;0,063647
1215,8984;0,064659
1216,8627;0,0656885
1217,8269;0,0667108
1218,7911;0,0677068
1219,7554;0,0686647
1220,7196;0,0695799
1221,6838;0,0704504
1222,6481;0,0712731
1223,6123;0,0720413
1224,5765;0,0727471
1225,5408;0,0733857
1226,5050;0,0739583
1227,4692;0,0744733
1228,4335;0,0749428
1229,3977;0,0753765
1230,3619;0,0757776
1231,3262;0,0761408
1232,2904;0,0764555
1233,2546;0,0767112
1234,2189;0,0769048
1235,1831;0,0770429
1236,1473;0,0771424
1237,1116;0,0772246
1238,0758;0,0773088
1239,0400;0,0774054
1240,0043;0,0775118
1240,9685;0,0776122
1241,9327;0,0776816
1242,8970;0,0776939
1243,8612;0,0776305
1244,8254;0,0774859
1245,7897;0,0772697
1246,7539;0,0770014
1247,7181;0,0767033
1248,6824;0,0763923
1249,6466;0,0760757
1250,6108;0,0757517
1251,5751;0,075415
1252,5393;0,0750639
1253,5035;0,0747056
1254,4678;0,0743553
1255,4320;0,0740285
1256,3962;0,0737303
1257,3605;0,0734482
1258,3247;0,0731535
1259,2889;0,0728127
1260,2532;0,072402
1261,2174;0,0719185
1262,1816;0,0713788
1263,1459;0,070809
1264,1101;0,0702309
1265,0743;0,0696546
1266,0386;0,0690768
1267,0028;0,0684832
1267,9670;0,0678528
1268,9313;0,0671631
1269,8955;0,0663963
1270,8597;0,0655471
1271,8240;0,0646284
1272,7882;0,063671
1273,7524;0,0627148
1274,7167;0,0617979
1275,6809;0,060946
1276,6451;0,0601669
1277,6094;0,0594507
1278,5736;0,0587737
1279,5378;0,0581084
1280,5021;0,0574347
1281,4663;0,0567499
1282,4305;0,0560708
1283,3948;0,055426
1284,3590;0,0548417
1285,3232;0,0543281
1286,2875;0,053874
1287,2517;0,0534529
1288,2159;0,0530388
1289,1802;0,0526225
1290,1444;0,0522184
1291,1086;0,0518581
1292,0729;0,0515767
1293,0371;0,051399
1294,0013;0,0513332
1294,9656;0,0513728
1295,9298;0,0515026
1296,8940;0,0517064
1297,8583;0,051972
1298,8225;0,0522933
1299,7867;0,0526697
1300,7510;0,0531035
1301,7152;0,0536039
1302,6794;0,0541778
1303,6437;0,0548271
1304,6079;0,0555492
1305,5721;0,0563354
1306,5364;0,0571745
1307,5006;0,058059
1308,4648;0,058987
1309,4291;0,0599548
1310,3933;0,0609476
1311,3575;0,0619314
1312,3218;0,062858
1313,2860;0,0636804
1314,2502;0,0643673
1315,2145;0,0649016
1316,1787;0,0652654
1317,1429;0,0654273
1318,1072;0,0653523
1319,0714;0,0650321
1320,0356;0,0645132
1320,9999;0,0638912
1321,9641;0,0632724
1322,9283;0,0627333
1323,8926;0,0623053
1324,8568;0,0619829
1325,8210;0,0617428
1326,7853;0,0615594
1327,7495;0,0614113
1328,7137;0,0612801
1329,6780;0,0611468
1330,6422;0,0609967
1331,6064;0,0608318
1332,5707;0,0606775
1333,5349;0,0605831
1334,4991;0,0605986
1335,4634;0,0607406
1336,4276;0,0609519
1337,3918;0,0610702
1338,3561;0,0608603
1339,3203;0,0601543
1340,2845;0,0590094
1341,2488;0,0576891
1342,2130;0,056476
1343,1772;0,0555283
1344,1415;0,0548752
1345,1057;0,0544747
1346,0699;0,0542619
1347,0342;0,0541747
1347,9984;0,0541714
1348,9626;0,0542389
1349,9269;0,0543857
1350,8911;0,0546238
1351,8553;0,0549511
1352,8196;0,055345
1353,7838;0,0557702
1354,7480;0,0561979
1355,7123;0,0566268
1356,6765;0,0570892
1357,6407;0,0576366
1358,6050;0,0583157
1359,5692;0,0591383
