TITLE;
DATA TYPE;INFRARED SPECTRUM
ORIGIN;JASCO
OWNER;
DATE;25/01/29
TIME;13:34:59
SPECTROMETER/DATA SYSTEM;
LOCALE;9226
RESOLUTION;
DELTAX;0,964233
XUNITS;1/CM
YUNITS;ABSORBANCE
FIRSTX;  399,1927
LASTX; 4000,6047
NPOINTS;    3736
FIRSTY;     0,13982
MAXY;     0,17829
MINY;     0,00540
XYDATA
399,1927;0,13982
400,1569;0,13859
401,1211;0,137257
402,0854;0,136131
403,0496;0,135409
404,0138;0,13521
404,9781;0,135555
405,9423;0,136319
406,9065;0,137242
407,8708;0,138033
408,8350;0,138491
409,7992;0,138564
410,7635;0,138329
411,7277;0,137918
412,6919;0,137456
413,6562;0,137019
414,6204;0,136654
415,5846;0,136414
416,5489;0,136402
417,5131;0,136756
418,4773;0,137523
419,4416;0,138499
420,4058;0,139329
421,3700;0,139809
422,3343;0,139953
423,2985;0,139859
424,2627;0,13962
425,2270;0,139338
426,1912;0,139131
427,1554;0,139126
428,1197;0,139409
429,0839;0,139991
430,0481;0,140797
431,0124;0,141685
431,9766;0,142496
432,9408;0,143111
433,9051;0,143488
434,8693;0,143649
435,8335;0,14365
436,7978;0,143545
437,7620;0,143366
438,7262;0,143119
439,6905;0,142793
440,6547;0,142388
441,6189;0,141938
442,5832;0,141525
443,5474;0,141257
444,5116;0,141206
445,4759;0,141356
446,4401;0,141609
447,4043;0,141842
448,3686;0,141969
449,3328;0,141959
450,2970;0,141828
451,2613;0,141609
452,2255;0,141337
453,1897;0,141049
454,1540;0,1408
455,1182;0,14067
456,0824;0,140733
457,0467;0,141002
458,0109;0,141381
458,9751;0,141698
459,9394;0,141819
460,9036;0,14173
461,8678;0,14152
462,8321;0,141307
463,7963;0,141184
464,7605;0,141189
465,7248;0,141297
466,6890;0,141428
467,6532;0,141475
468,6175;0,141345
469,5817;0,141
470,5459;0,140496
471,5102;0,139996
472,4744;0,139721
473,4386;0,139833
474,4029;0,140334
475,3671;0,141083
476,3313;0,141882
477,2956;0,142563
478,2598;0,143014
479,2240;0,143183
480,1883;0,143072
481,1525;0,142731
482,1167;0,142264
483,0810;0,141818
484,0452;0,14155
485,0094;0,141564
485,9737;0,141854
486,9379;0,142308
487,9021;0,142771
488,8664;0,143111
489,8306;0,14327
490,7948;0,143272
491,7591;0,1432
492,7233;0,143153
493,6875;0,143187
494,6518;0,143298
495,6160;0,143436
496,5802;0,143546
497,5445;0,1436
498,5087;0,1436
499,4729;0,143563
500,4372;0,143508
501,4014;0,143445
502,3656;0,143387
503,3299;0,143361
504,2941;0,143406
505,2583;0,143557
506,2226;0,143819
507,1868;0,144152
508,1510;0,144487
509,1153;0,144757
510,0795;0,144934
511,0437;0,145036
512,0080;0,145114
512,9722;0,145221
513,9365;0,145393
514,9007;0,145648
515,8649;0,145988
516,8292;0,146384
517,7934;0,146773
518,7576;0,147059
519,7219;0,147147
520,6861;0,14699
521,6503;0,146615
522,6146;0,146114
523,5788;0,145622
524,5430;0,145277
525,5073;0,145163
526,4715;0,14526
527,4357;0,145441
528,4000;0,145545
529,3642;0,145463
530,3284;0,145177
531,2927;0,144749
532,2569;0,144277
533,2211;0,143853
534,1854;0,143529
535,1496;0,143309
536,1138;0,143171
537,0781;0,143093
538,0423;0,143061
539,0065;0,143074
539,9708;0,143135
540,9350;0,143246
541,8992;0,143409
542,8635;0,143618
543,8277;0,143858
544,7919;0,1441
545,7562;0,144314
546,7204;0,144485
547,6846;0,144638
548,6489;0,144825
549,6131;0,145106
550,5773;0,145504
551,5416;0,145998
552,5058;0,146522
553,4700;0,147005
554,4343;0,147384
555,3985;0,147619
556,3627;0,147671
557,3270;0,147499
558,2912;0,147063
559,2554;0,146347
560,2197;0,145382
561,1839;0,144245
562,1481;0,14304
563,1124;0,141867
564,0766;0,140796
565,0408;0,13986
566,0051;0,139067
566,9693;0,138409
567,9335;0,13787
568,8978;0,137425
569,8620;0,137043
570,8262;0,136698
571,7905;0,136375
572,7547;0,136077
573,7189;0,135816
574,6832;0,135607
575,6474;0,135456
576,6116;0,135354
577,5759;0,135281
578,5401;0,135205
579,5043;0,135094
580,4686;0,134924
581,4328;0,134694
582,3970;0,134431
583,3613;0,134191
584,3255;0,134028
585,2897;0,13397
586,2540;0,133999
587,2182;0,134059
588,1824;0,134088
589,1467;0,134045
590,1109;0,133935
591,0751;0,133795
592,0394;0,133672
593,0036;0,133588
593,9678;0,133528
594,9321;0,133448
595,8963;0,133302
596,8605;0,133067
597,8248;0,132749
598,7890;0,132384
599,7532;0,132017
600,7175;0,131688
601,6817;0,131417
602,6459;0,131198
603,6102;0,13101
604,5744;0,130829
605,5386;0,13063
606,5029;0,130394
607,4671;0,130108
608,4313;0,129758
609,3956;0,129341
610,3598;0,128862
611,3240;0,128339
612,2883;0,127799
613,2525;0,127265
614,2167;0,126747
615,1810;0,126235
616,1452;0,125704
617,1094;0,125128
618,0737;0,12449
619,0379;0,123791
620,0021;0,123045
620,9664;0,12227
621,9306;0,121478
622,8948;0,120685
623,8591;0,119912
624,8233;0,119191
625,7875;0,118536
626,7518;0,117958
627,7160;0,117446
628,6802;0,116979
629,6445;0,11653
630,6087;0,116081
631,5729;0,115626
632,5372;0,11517
633,5014;0,11472
634,4656;0,114281
635,4299;0,113852
636,3941;0,113428
637,3583;0,113005
638,3226;0,112581
639,2868;0,112162
640,2510;0,111758
641,2153;0,111379
642,1795;0,11103
643,1437;0,110707
644,1080;0,110396
645,0722;0,110081
646,0364;0,109752
647,0007;0,109411
647,9649;0,109077
648,9291;0,108781
649,8934;0,108553
650,8576;0,108416
651,8218;0,108373
652,7861;0,108414
653,7503;0,108525
654,7145;0,108692
655,6788;0,108904
656,6430;0,109154
657,6072;0,109425
658,5715;0,10968
659,5357;0,109865
660,4999;0,10993
661,4642;0,109866
662,4284;0,109727
663,3926;0,109599
664,3569;0,109544
665,3211;0,109544
666,2853;0,109453
667,2496;0,108999
668,2138;0,107981
669,1780;0,106572
670,1423;0,10516
671,1065;0,103916
672,0707;0,10279
673,0350;0,101681
673,9992;0,100518
674,9634;0,0992943
675,9277;0,0980662
676,8919;0,096917
677,8561;0,0958976
678,8204;0,0950074
679,7846;0,0942224
680,7488;0,0935241
681,7131;0,0929012
682,6773;0,0923382
683,6415;0,091812
684,6058;0,0913073
685,5700;0,0908316
686,5342;0,0904133
687,4985;0,0900812
688,4627;0,0898402
689,4269;0,0896674
690,3912;0,0895243
691,3554;0,089378
692,3196;0,0892134
693,2839;0,0890307
694,2481;0,0888346
695,2123;0,0886255
696,1766;0,0883998
697,1408;0,0881552
698,1050;0,0878956
699,0693;0,0876298
700,0335;0,0873649
700,9977;0,0870992
701,9620;0,0868215
702,9262;0,0865164
703,8904;0,0861747
704,8547;0,0857959
705,8189;0,0853896
706,7831;0,0849691
707,7474;0,0845438
708,7116;0,0841137
709,6758;0,0836717
710,6401;0,0832086
711,6043;0,0827201
712,5685;0,0822103
713,5328;0,0816887
714,4970;0,0811642
715,4612;0,0807476
716,4255;0,080183
717,3897;0,0795783
718,3539;0,0789263
719,3182;0,0782367
720,2824;0,0775343
721,2466;0,076846
722,2109;0,0761853
723,1751;0,075549
724,1393;0,0749251
725,1036;0,0743055
726,0678;0,0736907
727,0320;0,0730858
727,9963;0,0724925
728,9605;0,0719066
729,9247;0,0713247
730,8890;0,0707539
731,8532;0,0702131
732,8174;0,0697244
733,7817;0,0692974
734,7459;0,0689212
735,7101;0,0685696
736,6744;0,0682169
737,6386;0,0678519
738,6028;0,0674819
739,5671;0,0671242
740,5313;0,0667933
741,4955;0,0664928
742,4598;0,0662137
743,4240;0,06594
744,3882;0,0656551
745,3525;0,0653462
746,3167;0,0650078
747,2809;0,064643
748,2452;0,0642629
749,2094;0,063883
750,1736;0,0635169
751,1379;0,0631712
752,1021;0,0628438
753,0663;0,0625264
754,0306;0,0622107
754,9948;0,0618925
755,9590;0,0615736
756,9233;0,0612598
757,8875;0,0609568
758,8517;0,0606677
759,8160;0,0603915
760,7802;0,0601245
761,7444;0,0598628
762,7087;0,059604
763,6729;0,0593469
764,6371;0,05909
765,6014;0,0588304
766,5656;0,058565
767,5298;0,0582941
768,4941;0,0580248
769,4583;0,0577701
770,4225;0,0575435
771,3868;0,057349
772,3510;0,0571759
773,3152;0,0570003
774,2795;0,0567964
775,2437;0,0565496
776,2079;0,0562656
777,1722;0,0559674
778,1364;0,0556836
779,1006;0,0554337
780,0649;0,0552197
781,0291;0,0550267
781,9933;0,0548333
782,9576;0,0546227
783,9218;0,0543909
784,8860;0,0541465
785,8503;0,0539052
786,8145;0,0536816
787,7787;0,0534833
788,7430;0,0533091
789,7072;0,053152
790,6714;0,0530038
791,6357;0,052859
792,5999;0,0527155
793,5641;0,0525718
794,5284;0,0524248
795,4926;0,0522691
796,4568;0,0521007
797,4211;0,0519215
798,3853;0,0517408
799,3495;0,0515718
800,3138;0,0514249
801,2780;0,0513011
802,2422;0,0511923
803,2065;0,0510867
804,1707;0,0509768
805,1349;0,0508639
806,0992;0,0507568
807,0634;0,0506646
808,0276;0,050591
808,9919;0,0505312
809,9561;0,0504751
810,9203;0,0504141
811,8846;0,0503467
812,8488;0,0502792
813,8130;0,0502224
814,7773;0,0501848
815,7415;0,0501674
816,7057;0,050163
817,6700;0,0501608
818,6342;0,0501532
819,5984;0,05014
820,5627;0,050127
821,5269;0,0501196
822,4911;0,0501168
823,4554;0,0501092
824,4196;0,0500838
825,3839;0,0500325
826,3481;0,0499576
827,3123;0,0498715
828,2766;0,0497886
829,2408;0,0497171
830,2050;0,0496532
831,1693;0,0495845
832,1335;0,0494972
833,0977;0,0493846
834,0620;0,0492498
835,0262;0,0491027
835,9904;0,0489536
836,9547;0,0488084
837,9189;0,0486669
838,8831;0,0485259
839,8474;0,0483829
840,8116;0,0482375
841,7758;0,0480921
842,7401;0,0479507
843,7043;0,0478181
844,6685;0,0476998
845,6328;0,0476002
846,5970;0,0475212
847,5612;0,0474605
848,5255;0,0474127
849,4897;0,0473721
850,4539;0,0473361
851,4182;0,0473056
852,3824;0,0472814
853,3466;0,0472603
854,3109;0,047234
855,2751;0,0471939
856,2393;0,0471377
857,2036;0,0470743
858,1678;0,0470218
859,1320;0,0469985
860,0963;0,0470143
861,0605;0,0470653
862,0247;0,0471366
862,9890;0,0472107
863,9532;0,0472761
864,9174;0,0473331
865,8817;0,047393
866,8459;0,0474738
867,8101;0,0475914
868,7744;0,0477536
869,7386;0,0479556
870,7028;0,0481825
871,6671;0,0484161
872,6313;0,0486431
873,5955;0,0488605
874,5598;0,0490742
875,5240;0,0492936
876,4882;0,0495262
877,4525;0,0497754
878,4167;0,0500433
879,3809;0,0503362
880,3452;0,0506655
881,3094;0,0510459
882,2736;0,0514895
883,2379;0,0520025
884,2021;0,0525847
885,1663;0,053231
886,1306;0,0539339
887,0948;0,0546831
888,0590;0,0554644
889,0233;0,0562594
889,9875;0,0570473
890,9517;0,0578077
891,9160;0,0585228
892,8802;0,0591772
893,8444;0,0597555
894,8087;0,0602406
895,7729;0,0606137
896,7371;0,0608564
897,7014;0,0609552
898,6656;0,0609061
899,6298;0,0607178
900,5941;0,0604116
901,5583;0,060018
902,5225;0,0595702
903,4868;0,0590984
904,4510;0,0586257
905,4152;0,0581694
906,3795;0,0577441
907,3437;0,0573646
908,3079;0,0570452
909,2722;0,0567962
910,2364;0,0566199
911,2007;0,0565107
912,1649;0,0564585
913,1292;0,0564556
914,0934;0,0565
915,0576;0,0565951
916,0219;0,0567451
916,9861;0,0569501
917,9503;0,0572027
918,9146;0,0574891
919,8788;0,057793
920,8430;0,0581005
921,8073;0,0584038
922,7715;0,0587027
923,7357;0,0590016
924,7000;0,0593056
925,6642;0,0596144
926,6284;0,0599203
927,5927;0,0602105
928,5569;0,0604735
929,5211;0,0607057
930,4854;0,0609148
931,4496;0,0611163
932,4138;0,0613276
933,3781;0,0615616
934,3423;0,0618261
935,3065;0,0621272
936,2708;0,0624733
937,2350;0,0628768
938,1992;0,0633505
939,1635;0,0639025
940,1277;0,0645329
941,0919;0,0652349
942,0562;0,0659997
943,0204;0,0668215
943,9846;0,0676981
944,9489;0,0686288
945,9131;0,0696106
946,8773;0,0706372
947,8416;0,0717022
948,8058;0,0728039
949,7700;0,0739493
950,7343;0,0751514
951,6985;0,0764233
952,6627;0,0777701
953,6270;0,0791846
954,5912;0,0806501
955,5554;0,0821483
956,5197;0,0836678
957,4839;0,0852088
958,4481;0,0867801
959,4124;0,0883918
960,3766;0,090047
961,3408;0,0917381
962,3051;0,0934485
963,2693;0,0951595
964,2335;0,0968567
965,1978;0,0985352
966,1620;0,100201
967,1262;0,101871
968,0905;0,103569
969,0547;0,105326
970,0189;0,107173
970,9832;0,109136
971,9474;0,111234
972,9116;0,113473
973,8759;0,115849
974,8401;0,118351
975,8043;0,120969
976,7686;0,123689
977,7328;0,126493
978,6970;0,129349
979,6613;0,1322
980,6255;0,134967
981,5897;0,137555
982,5540;0,139879
983,5182;0,141886
984,4824;0,14357
985,4467;0,144972
986,4109;0,146165
987,3751;0,147222
988,3394;0,148197
989,3036;0,149114
990,2678;0,149973
991,2321;0,150763
992,1963;0,151474
993,1605;0,152108
994,1248;0,15267
995,0890;0,153169
996,0532;0,153609
997,0175;0,153997
997,9817;0,154342
998,9459;0,154662
999,9102;0,154982
1000,8744;0,155329
1001,8386;0,155733
1002,8029;0,156215
1003,7671;0,156792
1004,7313;0,157475
1005,6956;0,158269
1006,6598;0,159183
1007,6240;0,160219
1008,5883;0,161377
1009,5525;0,162647
1010,5167;0,164004
1011,4810;0,16541
1012,4452;0,166822
1013,4094;0,168198
1014,3737;0,169503
1015,3379;0,170714
1016,3021;0,171818
1017,2664;0,172808
1018,2306;0,173681
1019,1948;0,174439
1020,1591;0,175091
1021,1233;0,175655
1022,0875;0,176151
1023,0518;0,176601
1024,0160;0,177015
1024,9802;0,177393
1025,9445;0,177724
1026,9087;0,177995
1027,8729;0,178189
1028,8372;0,178286
1029,8014;0,178261
1030,7656;0,178072
1031,7299;0,177673
1032,6941;0,177017
1033,6583;0,176081
1034,6226;0,174884
1035,5868;0,173486
1036,5510;0,171985
1037,5153;0,170492
1038,4795;0,169109
1039,4437;0,167915
1040,4080;0,166958
1041,3722;0,166256
1042,3364;0,165801
1043,3007;0,165563
1044,2649;0,165491
1045,2291;0,165524
1046,1934;0,165594
1047,1576;0,165643
1048,1218;0,165623
1049,0861;0,165498
1050,0503;0,165242
1051,0145;0,164831
1051,9788;0,164246
1052,9430;0,163477
1053,9072;0,162527
1054,8715;0,161404
1055,8357;0,160117
1056,7999;0,158658
1057,7642;0,157
1058,7284;0,155113
1059,6926;0,152978
1060,6569;0,150616
1061,6211;0,148093
1062,5853;0,14551
1063,5496;0,142979
1064,5138;0,140591
1065,4780;0,138397
1066,4423;0,136405
1067,4065;0,134591
1068,3707;0,132917
1069,3350;0,131344
1070,2992;0,129838
1071,2634;0,128366
1072,2277;0,126898
1073,1919;0,125403
1074,1561;0,123855
1075,1204;0,122242
1076,0846;0,120569
1077,0488;0,118864
1078,0131;0,11717
1078,9773;0,115536
1079,9415;0,114012
1080,9058;0,112633
1081,8700;0,111421
1082,8342;0,11038
1083,7985;0,109505
1084,7627;0,108777
1085,7269;0,108176
1086,6912;0,10768
1087,6554;0,107272
1088,6196;0,106941
1089,5839;0,106686
1090,5481;0,106506
1091,5123;0,106406
1092,4766;0,106386
1093,4408;0,106439
1094,4050;0,106555
1095,3693;0,10672
1096,3335;0,10692
1097,2977;0,107142
1098,2620;0,107371
1099,2262;0,107588
1100,1904;0,107769
1101,1547;0,107891
1102,1189;0,10793
1103,0831;0,107872
1104,0474;0,10772
1105,0116;0,107488
1105,9758;0,107201
1106,9401;0,106878
1107,9043;0,10652
1108,8685;0,106107
1109,8328;0,105591
1110,7970;0,104913
1111,7612;0,104025
1112,7255;0,102908
1113,6897;0,101586
1114,6539;0,10013
1115,6182;0,0986353
1116,5824;0,0972012
1117,5466;0,0958978
1118,5109;0,0947487
1119,4751;0,0937245
1120,4393;0,0927548
1121,4036;0,091751
1122,3678;0,090634
1123,3320;0,0893546
1124,2963;0,0879016
1125,2605;0,0862962
1126,2247;0,0845773
1127,1890;0,082787
1128,1532;0,0809615
1129,1174;0,0791289
1130,0817;0,0773113
1131,0459;0,0755285
1132,0101;0,0738
1132,9744;0,0721463
1133,9386;0,070591
1134,9028;0,0691614
1135,8671;0,0678885
1136,8313;0,0668036
1137,7955;0,0659325
1138,7598;0,0652905
1139,7240;0,064879
1140,6882;0,0646861
1141,6525;0,064689
1142,6167;0,0648575
1143,5809;0,0651573
1144,5452;0,0655534
1145,5094;0,0660145
1146,4736;0,0665174
1147,4379;0,0670501
1148,4021;0,06761
1149,3663;0,0681997
1150,3306;0,0688181
1151,2948;0,0694551
1152,2590;0,070089
1153,2233;0,0706898
1154,1875;0,0712242
1155,1517;0,0716595
1156,1160;0,0719637
1157,0802;0,0721019
1158,0444;0,0720321
1159,0087;0,0717041
1159,9729;0,0710637
1160,9371;0,0700626
1161,9014;0,0686718
1162,8656;0,0668932
1163,8298;0,0647659
1164,7941;0,062364
1165,7583;0,0597856
1166,7225;0,0571382
1167,6868;0,0545225
1168,6510;0,0520209
1169,6152;0,0496912
1170,5795;0,0475662
1171,5437;0,0456579
1172,5079;0,0439638
1173,4722;0,0424725
1174,4364;0,0411682
1175,4006;0,040034
1176,3649;0,0390532
1177,3291;0,0382108
1178,2933;0,0374927
1179,2576;0,0368859
1180,2218;0,0363773
1181,1860;0,035954
1182,1503;0,0356051
1183,1145;0,035323
1184,0787;0,035105
1185,0430;0,034953
1186,0072;0,0348719
1186,9714;0,0348675
1187,9357;0,0349443
1188,8999;0,0351045
1189,8641;0,035347
1190,8284;0,035668
1191,7926;0,0360608
1192,7568;0,0365173
1193,7211;0,0370289
1194,6853;0,037587
1195,6495;0,0381825
1196,6138;0,0388041
1197,5780;0,0394372
1198,5422;0,0400648
1199,5065;0,0406502
1200,4707;0,0412242
1201,4349;0,0417581
1202,3992;0,0422508
1203,3634;0,0427024
1204,3276;0,0431105
1205,2919;0,0434693
1206,2561;0,0437738
1207,2203;0,0440266
1208,1846;0,0442434
1209,1488;0,0444539
1210,1130;0,0446954
1211,0773;0,0450028
1212,0415;0,0453985
1213,0057;0,0458881
1213,9700;0,0464617
1214,9342;0,0471011
1215,8984;0,0477857
1216,8627;0,0484973
1217,8269;0,0492201
1218,7911;0,0499411
1219,7554;0,0506502
1220,7196;0,0513402
1221,6838;0,0520074
1222,6481;0,0526496
1223,6123;0,0532642
1224,5765;0,053847
1225,5408;0,0543925
1226,5050;0,0548971
1227,4692;0,0553598
1228,4335;0,0557827
1229,3977;0,0561684
1230,3619;0,0565171
1231,3262;0,056825
1232,2904;0,0570852
1233,2546;0,0572907
1234,2189;0,0574384
1235,1831;0,057531
1236,1473;0,0575776
1237,1116;0,0575903
1238,0758;0,0575807
1239,0400;0,0575557
1240,0043;0,0575167
1240,9685;0,0574606
1241,9327;0,0573827
1242,8970;0,0572792
1243,8612;0,0571472
1244,8254;0,0569843
1245,7897;0,0567886
1246,7539;0,0565603
1247,7181;0,0563035
1248,6824;0,0560265
1249,6466;0,0557402
1250,6108;0,0554546
1251,5751;0,0551766
1252,5393;0,0549093
1253,5035;0,0546539
1254,4678;0,0544108
1255,4320;0,0541793
1256,3962;0,0539564
1257,3605;0,0537355
1258,3247;0,0535083
1259,2889;0,0532668
1260,2532;0,0530059
1261,2174;0,052724
1262,1816;0,0524207
1263,1459;0,0520956
1264,1101;0,0517473
1265,0743;0,0513745
1266,0386;0,0509771
1267,0028;0,0505563
1267,9670;0,0501146
1268,9313;0,0496553
1269,8955;0,0491826
1270,8597;0,0487012
1271,8240;0,0482161
1272,7882;0,0477309
1273,7524;0,0472477
1274,7167;0,0467682
1275,6809;0,046295
1276,6451;0,0458328
1277,6094;0,0453861
1278,5736;0,044956
1279,5378;0,044538
1280,5021;0,044123
1281,4663;0,0437017
1282,4305;0,0432701
1283,3948;0,0428324
1284,3590;0,0424006
1285,3232;0,0419914
1286,2875;0,0416225
1287,2517;0,0413086
1288,2159;0,0410593
1289,1802;0,0408771
1290,1444;0,0407585
1291,1086;0,0406969
1292,0729;0,0406866
1293,0371;0,0407258
1294,0013;0,0408179
1294,9656;0,0409685
1295,9298;0,0411818
1296,8940;0,0414586
1297,8583;0,0417955
1298,8225;0,0421873
1299,7867;0,0426283
1300,7510;0,0431133
1301,7152;0,043637
1302,6794;0,0441953
1303,6437;0,0447858
1304,6079;0,0454089
1305,5721;0,0460654
1306,5364;0,0467525
1307,5006;0,0474611
1308,4648;0,0481757
1309,4291;0,0488778
1310,3933;0,0495498
1311,3575;0,0501757
1312,3218;0,0507405
1313,2860;0,0512285
1314,2502;0,0516222
1315,2145;0,0519036
1316,1787;0,0520577
1317,1429;0,0520777
1318,1072;0,0519713
1319,0714;0,0517645
1320,0356;0,0514962
1320,9999;0,0512074
1321,9641;0,0509295
1322,9283;0,0506802
1323,8926;0,0504664
1324,8568;0,0502894
1325,8210;0,0501479
1326,7853;0,0500386
1327,7495;0,0499559
1328,7137;0,0498915
1329,6780;0,0498348
1330,6422;0,0497733
1331,6064;0,0496935
1332,5707;0,0495811
1333,5349;0,0494207
1334,4991;0,0491953
1335,4634;0,0488868
1336,4276;0,04848
1337,3918;0,0479744
1338,3561;0,0473985
1339,3203;0,046812
1340,2845;0,0462814
1341,2488;0,0458444
1342,2130;0,0454974
1343,1772;0,045212
1344,1415;0,0449602
1345,1057;0,04473
1346,0699;0,044528
1347,0342;0,0443743
1347,9984;0,0442923
1348,9626;0,0442979
1349,9269;0,0443926
1350,8911;0,0445627
1351,8553;0,0447864
1352,8196;0,0450434
1353,7838;0,0453248
1354,7480;0,045634
1355,7123;0,0459792
1356,6765;0,0463605
