TITLE;
DATA TYPE;INFRARED SPECTRUM
ORIGIN;JASCO
OWNER;
DATE;25/03/28
TIME;16:51:05
SPECTROMETER/DATA SYSTEM;
LOCALE;9226
RESOLUTION;
DELTAX;0,964233
XUNITS;1/CM
YUNITS;ABSORBANCE
FIRSTX;  399,1927
LASTX; 4000,6047
NPOINTS;    3736
FIRSTY;     0,17775
MAXY;     0,20312
MINY;     0,01783
XYDATA
399,1927;0,177745
400,1569;0,1781
401,1211;0,178314
402,0854;0,178524
403,0496;0,178777
404,0138;0,179035
404,9781;0,179188
405,9423;0,179108
406,9065;0,178735
407,8708;0,178161
408,8350;0,177623
409,7992;0,177398
410,7635;0,17765
411,7277;0,178323
412,6919;0,179171
413,6562;0,179931
414,6204;0,180459
415,5846;0,18075
416,5489;0,180871
417,5131;0,180886
418,4773;0,180829
419,4416;0,180739
420,4058;0,1807
421,3700;0,1808
422,3343;0,181055
423,2985;0,181398
424,2627;0,181709
425,2270;0,181872
426,1912;0,181842
427,1554;0,181681
428,1197;0,181517
429,0839;0,181463
430,0481;0,181559
431,0124;0,181762
431,9766;0,18198
432,9408;0,182118
433,9051;0,182113
434,8693;0,181953
435,8335;0,18169
436,7978;0,18144
437,7620;0,181349
438,7262;0,18153
439,6905;0,182005
440,6547;0,18268
441,6189;0,183359
442,5832;0,183827
443,5474;0,183957
444,5116;0,183784
445,4759;0,183453
446,4401;0,183097
447,4043;0,18275
448,3686;0,182358
449,3328;0,181849
450,2970;0,181208
451,2613;0,180513
452,2255;0,179905
453,1897;0,179533
454,1540;0,1795
455,1182;0,179832
456,0824;0,180462
457,0467;0,181207
458,0109;0,181805
458,9751;0,182039
459,9394;0,181872
460,9036;0,181452
461,8678;0,180987
462,8321;0,180639
463,7963;0,180461
464,7605;0,180399
465,7248;0,180323
466,6890;0,180109
467,6532;0,179709
468,6175;0,179177
469,5817;0,178648
470,5459;0,178281
471,5102;0,178182
472,4744;0,17834
473,4386;0,178607
474,4029;0,178784
475,3671;0,178743
476,3313;0,178486
477,2956;0,178131
478,2598;0,17784
479,2240;0,177734
480,1883;0,177821
481,1525;0,177982
482,1167;0,178028
483,0810;0,177808
484,0452;0,177302
485,0094;0,17664
485,9737;0,176016
486,9379;0,175578
487,9021;0,175368
488,8664;0,175353
489,8306;0,175474
490,7948;0,175677
491,7591;0,175914
492,7233;0,176127
493,6875;0,176251
494,6518;0,176243
495,6160;0,176102
496,5802;0,175882
497,5445;0,175663
498,5087;0,175521
499,4729;0,175501
500,4372;0,175608
501,4014;0,175805
502,3656;0,176023
503,3299;0,176183
504,2941;0,176225
505,2583;0,176136
506,2226;0,175969
507,1868;0,175837
508,1510;0,175872
509,1153;0,176165
510,0795;0,176707
511,0437;0,177385
512,0080;0,178032
512,9722;0,178494
513,9365;0,17869
514,9007;0,17863
515,8649;0,178407
516,8292;0,178157
517,7934;0,178008
518,7576;0,178023
519,7219;0,178175
520,6861;0,178382
521,6503;0,178541
522,6146;0,17857
523,5788;0,17842
524,5430;0,178088
525,5073;0,177629
526,4715;0,177142
527,4357;0,176727
528,4000;0,176437
529,3642;0,176251
530,3284;0,176096
531,2927;0,175886
532,2569;0,17556
533,2211;0,175112
534,1854;0,174591
535,1496;0,174081
536,1138;0,17366
537,0781;0,173371
538,0423;0,173215
539,0065;0,173167
539,9708;0,173187
540,9350;0,173233
541,8992;0,173265
542,8635;0,173247
543,8277;0,173161
544,7919;0,173024
545,7562;0,17289
546,7204;0,172836
547,6846;0,172918
548,6489;0,17314
549,6131;0,173448
550,5773;0,173754
551,5416;0,173986
552,5058;0,174119
553,4700;0,174181
554,4343;0,174223
555,3985;0,174283
556,3627;0,174352
557,3270;0,174372
558,2912;0,174253
559,2554;0,173919
560,2197;0,17334
561,1839;0,172551
562,1481;0,171639
563,1124;0,17071
564,0766;0,169839
565,0408;0,169054
566,0051;0,168337
566,9693;0,167658
567,9335;0,167001
568,8978;0,166381
569,8620;0,165824
570,8262;0,165347
571,7905;0,164942
572,7547;0,164589
573,7189;0,164273
574,6832;0,163991
575,6474;0,163751
576,6116;0,163552
577,5759;0,163374
578,5401;0,163185
579,5043;0,162961
580,4686;0,162703
581,4328;0,162441
582,3970;0,162215
583,3613;0,162056
584,3255;0,161963
585,2897;0,161911
586,2540;0,161852
587,2182;0,161742
588,1824;0,161549
589,1467;0,161264
590,1109;0,160905
591,0751;0,16052
592,0394;0,16017
593,0036;0,1599
593,9678;0,159721
594,9321;0,159594
595,8963;0,159452
596,8605;0,159224
597,8248;0,158869
598,7890;0,158388
599,7532;0,157828
600,7175;0,157256
601,6817;0,156742
602,6459;0,156327
603,6102;0,156023
604,5744;0,155809
605,5386;0,155637
606,5029;0,155454
607,4671;0,155211
608,4313;0,154885
609,3956;0,154488
610,3598;0,154057
611,3240;0,15364
612,2883;0,153266
613,2525;0,152938
614,2167;0,152632
615,1810;0,1523
616,1452;0,151893
617,1094;0,151371
618,0737;0,150714
619,0379;0,149931
620,0021;0,149045
620,9664;0,148095
621,9306;0,147123
622,8948;0,14618
623,8591;0,145316
624,8233;0,14458
625,7875;0,143982
626,7518;0,143512
627,7160;0,143126
628,6802;0,14277
629,6445;0,142387
630,6087;0,141933
631,5729;0,14139
632,5372;0,140764
633,5014;0,140089
634,4656;0,139416
635,4299;0,138794
636,3941;0,138255
637,3583;0,137804
638,3226;0,137418
639,2868;0,13706
640,2510;0,136701
641,2153;0,136325
642,1795;0,135941
643,1437;0,135568
644,1080;0,135232
645,0722;0,134944
646,0364;0,134699
647,0007;0,134473
647,9649;0,134235
648,9291;0,133962
649,8934;0,13365
650,8576;0,133327
651,8218;0,133031
652,7861;0,132804
653,7503;0,132671
654,7145;0,132639
655,6788;0,132694
656,6430;0,132811
657,6072;0,132952
658,5715;0,133069
659,5357;0,133107
660,4999;0,133033
661,4642;0,132858
662,4284;0,132647
663,3926;0,132483
664,3569;0,132415
665,3211;0,132413
666,2853;0,132325
667,2496;0,131882
668,2138;0,130883
669,1780;0,129513
670,1423;0,128173
671,1065;0,127038
672,0707;0,126047
673,0350;0,125078
673,9992;0,12404
674,9634;0,122901
675,9277;0,121702
676,8919;0,12052
677,8561;0,119409
678,8204;0,11838
679,7846;0,117423
680,7488;0,116545
681,7131;0,11578
682,6773;0,115157
683,6415;0,114678
684,6058;0,114302
685,5700;0,113971
686,5342;0,11363
687,4985;0,113254
688,4627;0,112848
689,4269;0,112443
690,3912;0,112069
691,3554;0,111741
692,3196;0,111445
693,2839;0,111157
694,2481;0,110853
695,2123;0,110527
696,1766;0,11019
697,1408;0,109862
698,1050;0,109555
699,0693;0,109265
700,0335;0,108982
700,9977;0,10869
701,9620;0,108383
702,9262;0,108057
703,8904;0,107715
704,8547;0,10735
705,8189;0,106957
706,7831;0,10653
707,7474;0,106071
708,7116;0,105588
709,6758;0,105094
710,6401;0,104598
711,6043;0,104111
712,5685;0,103641
713,5328;0,103201
714,4970;0,102801
715,4612;0,102537
716,4255;0,102192
717,3897;0,101839
718,3539;0,101444
719,3182;0,100983
720,2824;0,100458
721,2466;0,0998938
722,2109;0,0993253
723,1751;0,0987737
724,1393;0,0982392
725,1036;0,0977087
726,0678;0,0971691
727,0320;0,0966179
727,9963;0,0960656
728,9605;0,0955288
729,9247;0,095022
730,8890;0,0945531
731,8532;0,0941231
732,8174;0,0937278
733,7817;0,0933605
734,7459;0,0930132
735,7101;0,09268
736,6744;0,0923583
737,6386;0,0920494
738,6028;0,0917555
739,5671;0,0914763
740,5313;0,091208
741,4955;0,0909462
742,4598;0,0906886
743,4240;0,0904364
744,3882;0,0901904
745,3525;0,0899468
746,3167;0,0896978
747,2809;0,0894363
748,2452;0,0891635
749,2094;0,088891
750,1736;0,0886348
751,1379;0,0884037
752,1021;0,0881915
753,0663;0,0879783
754,0306;0,0877433
754,9948;0,0874785
755,9590;0,0871951
756,9233;0,0869173
757,8875;0,0866671
758,8517;0,0864519
759,8160;0,0862613
760,7802;0,0860755
761,7444;0,0858773
762,7087;0,0856603
763,6729;0,0854292
764,6371;0,0851935
765,6014;0,0849613
766,5656;0,0847372
767,5298;0,0845237
768,4941;0,084323
769,4583;0,0841367
770,4225;0,0839631
771,3868;0,0837965
772,3510;0,0836283
773,3152;0,0834515
774,2795;0,0832641
775,2437;0,0830684
776,2079;0,0828675
777,1722;0,0826593
778,1364;0,0824341
779,1006;0,0821771
780,0649;0,0818759
781,0291;0,0815292
781,9933;0,0811514
782,9576;0,0807699
783,9218;0,0804141
784,8860;0,0801034
785,8503;0,0798388
786,8145;0,0796059
787,7787;0,0793865
788,7430;0,0791718
789,7072;0,0789683
790,6714;0,0787937
791,6357;0,0786652
792,5999;0,0785885
793,5641;0,0785561
794,5284;0,0785525
795,4926;0,078563
796,4568;0,0785795
797,4211;0,0785995
798,3853;0,0786222
799,3495;0,0786464
800,3138;0,0786704
801,2780;0,0786939
802,2422;0,078718
803,2065;0,0787421
804,1707;0,0787603
805,1349;0,0787608
806,0992;0,0787286
807,0634;0,0786523
808,0276;0,0785279
808,9919;0,0783596
809,9561;0,078155
810,9203;0,0779192
811,8846;0,0776515
812,8488;0,0773451
813,8130;0,076993
814,7773;0,0765941
815,7415;0,0761582
816,7057;0,0757054
817,6700;0,0752607
818,6342;0,0748449
819,5984;0,0744677
820,5627;0,0741251
821,5269;0,0738035
822,4911;0,0734878
823,4554;0,0731696
824,4196;0,0728518
825,3839;0,0725477
826,3481;0,0722756
827,3123;0,0720509
828,2766;0,0718785
829,2408;0,0717487
830,2050;0,0716391
831,1693;0,0715212
832,1335;0,0713712
833,0977;0,0711799
834,0620;0,0709558
835,0262;0,0707212
835,9904;0,0705014
836,9547;0,0703132
837,9189;0,0701601
838,8831;0,0700351
839,8474;0,0699297
840,8116;0,0698407
841,7758;0,0697733
842,7401;0,0697369
843,7043;0,0697402
844,6685;0,069788
845,6328;0,0698811
846,5970;0,0700178
847,5612;0,0701936
848,5255;0,0704002
849,4897;0,070625
850,4539;0,0708541
851,4182;0,0710779
852,3824;0,0712945
853,3466;0,071509
854,3109;0,0717259
855,2751;0,071943
856,2393;0,0721496
857,2036;0,0723324
858,1678;0,0724841
859,1320;0,0726071
860,0963;0,0727108
861,0605;0,0728035
862,0247;0,0728865
862,9890;0,0729552
863,9532;0,0730064
864,9174;0,0730454
865,8817;0,0730871
866,8459;0,0731491
867,8101;0,073243
868,7744;0,0733688
869,7386;0,0735159
870,7028;0,0736699
871,6671;0,0738188
872,6313;0,073956
873,5955;0,0740796
874,5598;0,0741902
875,5240;0,0742911
876,4882;0,0743888
877,4525;0,074494
878,4167;0,0746193
879,3809;0,0747757
880,3452;0,0749677
881,3094;0,0751932
882,2736;0,0754458
883,2379;0,07572
884,2021;0,0760142
885,1663;0,0763299
886,1306;0,0766678
887,0948;0,0770242
888,0590;0,077391
889,0233;0,0777593
889,9875;0,0781228
890,9517;0,0784775
891,9160;0,0788159
892,8802;0,0791217
893,8444;0,079369
894,8087;0,0795293
895,7729;0,0795829
896,7371;0,079526
897,7014;0,0793704
898,6656;0,0791348
899,6298;0,0788352
900,5941;0,0784813
901,5583;0,0780798
902,5225;0,0776409
903,4868;0,0771821
904,4510;0,0767256
905,4152;0,0762934
906,3795;0,0759025
907,3437;0,0755644
908,3079;0,075286
909,2722;0,0750702
910,2364;0,0749143
911,2007;0,0748085
912,1649;0,0747387
913,1292;0,0746925
914,0934;0,0746675
915,0576;0,0746735
916,0219;0,0747293
916,9861;0,0748517
917,9503;0,0750464
918,9146;0,0753028
919,8788;0,0755986
920,8430;0,0759079
921,8073;0,0762117
922,7715;0,0765036
923,7357;0,07679
924,7000;0,0770855
925,6642;0,0774065
926,6284;0,0777655
927,5927;0,0781668
928,5569;0,0786066
929,5211;0,0790745
930,4854;0,079558
931,4496;0,0800465
932,4138;0,0805348
933,3781;0,0810245
934,3423;0,0815229
935,3065;0,08204
936,2708;0,082585
937,2350;0,0831627
938,1992;0,0837714
939,1635;0,0844034
940,1277;0,0850477
941,0919;0,0856938
942,0562;0,0863356
943,0204;0,0869726
943,9846;0,0876104
944,9489;0,0882582
945,9131;0,0889272
946,8773;0,0896276
947,8416;0,0903666
948,8058;0,0911468
949,7700;0,0919656
950,7343;0,0928183
951,6985;0,0937013
952,6627;0,0946152
953,6270;0,095563
954,5912;0,0965454
955,5554;0,0975547
956,5197;0,0985749
957,4839;0,0995884
958,4481;0,100588
959,4124;0,101584
960,3766;0,102604
961,3408;0,103674
962,3051;0,104805
963,2693;0,10598
964,2335;0,107162
965,1978;0,108313
966,1620;0,109419
967,1262;0,110493
968,0905;0,111575
969,0547;0,11271
970,0189;0,113929
970,9832;0,115245
971,9474;0,116654
972,9116;0,118153
973,8759;0,119749
974,8401;0,12146
975,8043;0,123309
976,7686;0,125317
977,7328;0,127491
978,6970;0,129824
979,6613;0,132289
980,6255;0,134845
981,5897;0,13743
982,5540;0,139975
983,5182;0,14241
984,4824;0,144687
985,4467;0,146785
986,4109;0,148715
987,3751;0,150513
988,3394;0,152219
989,3036;0,153864
990,2678;0,15546
991,2321;0,157004
992,1963;0,158487
993,1605;0,159905
994,1248;0,161267
995,0890;0,162595
996,0532;0,163915
997,0175;0,165249
997,9817;0,166605
998,9459;0,167972
999,9102;0,169332
1000,8744;0,170668
1001,8386;0,171976
1002,8029;0,173266
1003,7671;0,174557
1004,7313;0,175864
1005,6956;0,1772
1006,6598;0,178568
1007,6240;0,179972
1008,5883;0,181418
1009,5525;0,182914
1010,5167;0,184462
1011,4810;0,186056
1012,4452;0,187675
1013,4094;0,18929
1014,3737;0,190876
1015,3379;0,192412
1016,3021;0,193888
1017,2664;0,195298
1018,2306;0,196634
1019,1948;0,197883
1020,1591;0,199024
1021,1233;0,20004
1022,0875;0,200916
1023,0518;0,201648
1024,0160;0,202234
1024,9802;0,202679
1025,9445;0,202979
1026,9087;0,203121
1027,8729;0,203083
1028,8372;0,202832
1029,8014;0,20233
1030,7656;0,201545
1031,7299;0,200454
1032,6941;0,199056
1033,6583;0,197373
1034,6226;0,195458
1035,5868;0,193385
1036,5510;0,191249
1037,5153;0,189153
1038,4795;0,187199
1039,4437;0,185477
1040,4080;0,184052
1041,3722;0,182956
1042,3364;0,182187
1043,3007;0,181713
1044,2649;0,181479
1045,2291;0,18142
1046,1934;0,181472
1047,1576;0,181574
1048,1218;0,181673
1049,0861;0,181725
1050,0503;0,181693
1051,0145;0,181547
1051,9788;0,181262
1052,9430;0,180815
1053,9072;0,180185
1054,8715;0,179358
1055,8357;0,178317
1056,7999;0,17705
1057,7642;0,175538
1058,7284;0,173769
1059,6926;0,171739
1060,6569;0,169471
1061,6211;0,167017
1062,5853;0,164455
1063,5496;0,16187
1064,5138;0,159337
1065,4780;0,156905
1066,4423;0,154597
1067,4065;0,152416
1068,3707;0,150357
1069,3350;0,148407
1070,2992;0,146549
1071,2634;0,144758
1072,2277;0,143002
1073,1919;0,141254
1074,1561;0,139498
1075,1204;0,137735
1076,0846;0,135979
1077,0488;0,134256
1078,0131;0,132597
1078,9773;0,131037
1079,9415;0,129607
1080,9058;0,128336
1081,8700;0,127238
1082,8342;0,12631
1083,7985;0,125529
1084,7627;0,124857
1085,7269;0,124256
1086,6912;0,123695
1087,6554;0,123153
1088,6196;0,12262
1089,5839;0,122087
1090,5481;0,121549
1091,5123;0,121003
1092,4766;0,120454
1093,4408;0,119918
1094,4050;0,119415
1095,3693;0,11896
1096,3335;0,11856
1097,2977;0,118208
1098,2620;0,117895
1099,2262;0,11761
1100,1904;0,117346
1101,1547;0,117096
1102,1189;0,116845
1103,0831;0,116573
1104,0474;0,11625
1105,0116;0,115855
1105,9758;0,115372
1106,9401;0,114799
1107,9043;0,114138
1108,8685;0,113384
1109,8328;0,112526
1110,7970;0,111541
1111,7612;0,11041
1112,7255;0,109127
1113,6897;0,107712
1114,6539;0,106216
1115,6182;0,104706
1116,5824;0,103256
1117,5466;0,10192
1118,5109;0,100719
1119,4751;0,0996405
1120,4393;0,0986432
1121,4036;0,097679
1122,3678;0,0967088
1123,3320;0,0957134
1124,2963;0,0946924
1125,2605;0,0936575
1126,2247;0,0926248
1127,1890;0,0916118
1128,1532;0,0906386
1129,1174;0,0897285
1130,0817;0,0889059
1131,0459;0,0881897
1132,0101;0,0875876
1132,9744;0,0870942
1133,9386;0,0866955
1134,9028;0,0863761
1135,8671;0,0861247
1136,8313;0,0859345
1137,7955;0,0857989
1138,7598;0,0857071
1139,7240;0,0856428
1140,6882;0,0855881
1141,6525;0,085528
1142,6167;0,0854552
1143,5809;0,0853694
1144,5452;0,0852754
1145,5094;0,0851812
1146,4736;0,0850977
1147,4379;0,0850397
1148,4021;0,0850252
1149,3663;0,0850711
1150,3306;0,0851862
1151,2948;0,0853648
1152,2590;0,0855842
1153,2233;0,0858088
1154,1875;0,0859957
1155,1517;0,0861023
1156,1160;0,0860891
1157,0802;0,0859207
1158,0444;0,0855634
1159,0087;0,0849843
1159,9729;0,0841524
1160,9371;0,0830435
1161,9014;0,0816471
1162,8656;0,0799735
1163,8298;0,0780575
1164,7941;0,0759562
1165,7583;0,0737418
1166,7225;0,0714906
1167,6868;0,0692726
1168,6510;0,0671435
1169,6152;0,0651425
1170,5795;0,0632927
1171,5437;0,0616044
1172,5079;0,0600797
1173,4722;0,0587156
1174,4364;0,0575062
1175,4006;0,0564441
1176,3649;0,0555198
1177,3291;0,0547219
1178,2933;0,0540372
1179,2576;0,0534531
1180,2218;0,052961
1181,1860;0,0525586
1182,1503;0,0522505
1183,1145;0,0520448
1184,0787;0,051949
1185,0430;0,0519648
1186,0072;0,052087
1186,9714;0,052304
1187,9357;0,052602
1188,8999;0,0529685
1189,8641;0,0533942
1190,8284;0,0538738
1191,7926;0,0544045
1192,7568;0,0549853
1193,7211;0,0556154
1194,6853;0,0562932
1195,6495;0,0570153
1196,6138;0,0577741
1197,5780;0,0585577
1198,5422;0,0593506
1199,5065;0,0601019
1200,4707;0,060871
1201,4349;0,0616095
1202,3992;0,0623119
1203,3634;0,0629747
1204,3276;0,0635936
1205,2919;0,0641621
1206,2561;0,0646733
1207,2203;0,0651232
1208,1846;0,0655152
1209,1488;0,0658616
1210,1130;0,0661821
1211,0773;0,0664975
1212,0415;0,0668245
1213,0057;0,0671702
1213,9700;0,0675324
1214,9342;0,0679034
1215,8984;0,0682748
1216,8627;0,0686413
1217,8269;0,0690013
1218,7911;0,0693549
1219,7554;0,0697011
1220,7196;0,0700354
1221,6838;0,0703505
1222,6481;0,0706383
1223,6123;0,0708919
1224,5765;0,0711075
1225,5408;0,0712834
1226,5050;0,0714192
1227,4692;0,0715141
1228,4335;0,0715663
1229,3977;0,0715737
1230,3619;0,0715348
1231,3262;0,0714502
1232,2904;0,0713232
1233,2546;0,0711612
1234,2189;0,0709763
1235,1831;0,0707856
1236,1473;0,070609
1237,1116;0,0704654
1238,0758;0,0703693
1239,0400;0,0703272
1240,0043;0,0703392
1240,9685;0,0704019
1241,9327;0,0705118
1242,8970;0,070667
1243,8612;0,0708661
1244,8254;0,0711058
1245,7897;0,0713797
1246,7539;0,0716797
1247,7181;0,0719991
1248,6824;0,0723345
1249,6466;0,0726871
1250,6108;0,0730603
1251,5751;0,0734579
1252,5393;0,0738807
1253,5035;0,0743259
1254,4678;0,0747856
1255,4320;0,0752476
1256,3962;0,075696
1257,3605;0,076114
1258,3247;0,0764856
1259,2889;0,076798
1260,2532;0,0770419
1261,2174;0,0772088
1262,1816;0,0772893
1263,1459;0,0772724
1264,1101;0,0771471
1265,0743;0,0769066
1266,0386;0,0765497
1267,0028;0,0760799
1267,9670;0,0755028
1268,9313;0,0748242
1269,8955;0,0740515
1270,8597;0,0731971
1271,8240;0,0722797
1272,7882;0,0713224
1273,7524;0,0703467
1274,7167;0,0693686
1275,6809;0,0683979
1276,6451;0,0674413
1277,6094;0,0665051
1278,5736;0,0655954
1279,5378;0,0647164
1280,5021;0,0638682
1281,4663;0,063048
1282,4305;0,0622536
1283,3948;0,0614875
1284,3590;0,060758
1285,3232;0,0600782
1286,2875;0,0594619
1287,2517;0,0589201
1288,2159;0,0584583
1289,1802;0,0580753
1290,1444;0,0577654
1291,1086;0,05752
1292,0729;0,0573314
1293,0371;0,0571938
1294,0013;0,0571045
1294,9656;0,0570622
1295,9298;0,0570663
1296,8940;0,0571154
1297,8583;0,0572072
1298,8225;0,0573389
1299,7867;0,0575076
1300,7510;0,0577103
1301,7152;0,0579444
1302,6794;0,0582078
1303,6437;0,0584991
1304,6079;0,0588181
1305,5721;0,0591632
1306,5364;0,05953
1307,5006;0,0599094
1308,4648;0,0602886
1309,4291;0,060654
1310,3933;0,0609936
1311,3575;0,0612984
1312,3218;0,0615614
1313,2860;0,0617754
1314,2502;0,0619304
1315,2145;0,0620118
1316,1787;0,0620029
1317,1429;0,0618918
1318,1072;0,0616793
1319,0714;0,0613845
1320,0356;0,0610419
1320,9999;0,0606885
1321,9641;0,0603526
1322,9283;0,0600486
1323,8926;0,0597822
1324,8568;0,0595561
1325,8210;0,0593746
1326,7853;0,0592419
1327,7495;0,0591593
1328,7137;0,0591227
1329,6780;0,0591222
1330,6422;0,0591443
1331,6064;0,0591742
1332,5707;0,0591975
1333,5349;0,0591998
1334,4991;0,0591663
1335,4634;0,0590807
1336,4276;0,0589281
1337,3918;0,0587018
1338,3561;0,0584143
1339,3203;0,0581027
1340,2845;0,0578148
1341,2488;0,0575833
1342,2130;0,057411
1343,1772;0,0572804
1344,1415;0,057172
1345,1057;0,0570777
1346,0699;0,0570044
1347,0342;0,0569685
1347,9984;0,0569874
1348,9626;0,0570694
1349,9269;0,0572098
1350,8911;0,0573933
1351,8553;0,0576012
1352,8196;0,0578207
1353,7838;0,0580505
1354,7480;0,0582996
1355,7123;0,0585785
1356,6765;0,0588886
1357,6407;0,0592179
1358,6050;0,059546
1359,5692;0,0598542
