TITLE;
DATA TYPE;INFRARED SPECTRUM
ORIGIN;JASCO
OWNER;
DATE;25/03/28
TIME;17:53:21
SPECTROMETER/DATA SYSTEM;
LOCALE;9226
RESOLUTION;
DELTAX;0,964233
XUNITS;1/CM
YUNITS;ABSORBANCE
FIRSTX;  399,1927
LASTX; 4000,6047
NPOINTS;    3736
FIRSTY;     0,17088
MAXY;     0,17088
MINY;     0,01493
XYDATA
399,1927;0,170877
400,1569;0,169298
401,1211;0,167745
402,0854;0,166525
403,0496;0,165492
404,0138;0,164456
404,9781;0,163438
405,9423;0,162698
406,9065;0,162531
407,8708;0,162977
408,8350;0,163716
409,7992;0,164234
410,7635;0,164155
411,7277;0,163493
412,6919;0,16262
413,6562;0,16196
414,6204;0,161701
415,5846;0,161719
416,5489;0,161687
417,5131;0,161281
418,4773;0,160524
419,4416;0,159938
420,4058;0,160058
421,3700;0,160874
422,3343;0,161986
423,2985;0,163015
424,2627;0,16377
425,2270;0,164258
426,1912;0,164614
427,1554;0,16498
428,1197;0,165403
429,0839;0,16582
430,0481;0,166132
431,0124;0,166297
431,9766;0,166366
432,9408;0,166437
433,9051;0,166553
434,8693;0,166643
435,8335;0,166576
436,7978;0,166283
437,7620;0,165854
438,7262;0,165498
439,6905;0,165408
440,6547;0,165624
441,6189;0,165986
442,5832;0,16622
443,5474;0,166131
444,5116;0,165771
445,4759;0,165399
446,4401;0,165261
447,4043;0,165399
448,3686;0,165628
449,3328;0,165679
450,2970;0,165386
451,2613;0,164802
452,2255;0,164166
453,1897;0,163736
454,1540;0,163631
455,1182;0,163805
456,0824;0,164128
457,0467;0,164527
458,0109;0,165046
458,9751;0,165766
459,9394;0,16664
460,9036;0,167443
461,8678;0,167892
462,8321;0,167807
463,7963;0,167225
464,7605;0,166409
465,7248;0,165733
466,6890;0,165456
467,6532;0,165551
468,6175;0,16574
469,5817;0,165686
470,5459;0,165226
471,5102;0,164496
472,4744;0,163849
473,4386;0,163589
474,4029;0,163745
475,3671;0,164091
476,3313;0,164347
477,2956;0,164349
478,2598;0,164083
479,2240;0,163619
480,1883;0,163039
481,1525;0,162396
482,1167;0,161743
483,0810;0,161173
484,0452;0,160816
485,0094;0,160758
485,9737;0,160963
486,9379;0,161275
487,9021;0,161517
488,8664;0,161587
489,8306;0,161509
490,7948;0,161401
491,7591;0,161393
492,7233;0,161531
493,6875;0,16175
494,6518;0,161914
495,6160;0,161904
496,5802;0,161674
497,5445;0,161255
498,5087;0,160722
499,4729;0,160162
500,4372;0,159654
501,4014;0,159266
502,3656;0,159052
503,3299;0,159042
504,2941;0,159225
505,2583;0,15954
506,2226;0,159884
507,1868;0,160136
508,1510;0,160205
509,1153;0,160078
510,0795;0,159836
511,0437;0,15961
512,0080;0,159503
512,9722;0,159541
513,9365;0,15966
514,9007;0,159751
515,8649;0,15973
516,8292;0,159592
517,7934;0,159426
518,7576;0,159345
519,7219;0,159406
520,6861;0,159563
521,6503;0,159711
522,6146;0,159745
523,5788;0,159608
524,5430;0,159305
525,5073;0,1589
526,4715;0,158477
527,4357;0,158092
528,4000;0,157751
529,3642;0,157423
530,3284;0,157078
531,2927;0,156702
532,2569;0,156308
533,2211;0,15592
534,1854;0,155551
535,1496;0,155204
536,1138;0,15487
537,0781;0,154546
538,0423;0,154242
539,0065;0,153973
539,9708;0,153751
540,9350;0,153581
541,8992;0,153458
542,8635;0,153383
543,8277;0,153364
544,7919;0,153404
545,7562;0,153489
546,7204;0,15358
547,6846;0,153619
548,6489;0,153561
549,6131;0,153397
550,5773;0,153165
551,5416;0,152937
552,5058;0,152775
553,4700;0,152709
554,4343;0,15272
555,3985;0,152747
556,3627;0,152715
557,3270;0,15256
558,2912;0,152248
559,2554;0,151775
560,2197;0,151159
561,1839;0,150436
562,1481;0,149654
563,1124;0,148862
564,0766;0,148101
565,0408;0,147394
566,0051;0,146746
566,9693;0,146155
567,9335;0,14562
568,8978;0,145148
569,8620;0,144741
570,8262;0,144391
571,7905;0,144069
572,7547;0,143742
573,7189;0,143386
574,6832;0,143002
575,6474;0,142613
576,6116;0,142255
577,5759;0,141954
578,5401;0,141712
579,5043;0,141516
580,4686;0,141346
581,4328;0,141189
582,3970;0,141046
583,3613;0,140919
584,3255;0,140803
585,2897;0,14068
586,2540;0,140522
587,2182;0,140305
588,1824;0,14003
589,1467;0,139723
590,1109;0,139428
591,0751;0,139184
592,0394;0,139003
593,0036;0,138856
593,9678;0,138693
594,9321;0,138468
595,8963;0,138163
596,8605;0,13779
597,8248;0,137374
598,7890;0,136942
599,7532;0,136514
600,7175;0,136106
601,6817;0,135733
602,6459;0,135415
603,6102;0,135163
604,5744;0,134975
605,5386;0,134833
606,5029;0,134706
607,4671;0,13456
608,4313;0,134367
609,3956;0,134111
610,3598;0,133783
611,3240;0,133383
612,2883;0,132926
613,2525;0,132436
614,2167;0,131939
615,1810;0,131453
616,1452;0,130982
617,1094;0,130517
618,0737;0,130041
619,0379;0,129539
620,0021;0,129005
620,9664;0,128438
621,9306;0,12784
622,8948;0,127217
623,8591;0,126581
624,8233;0,125936
625,7875;0,12533
626,7518;0,124774
627,7160;0,124268
628,6802;0,123808
629,6445;0,123394
630,6087;0,123025
631,5729;0,122693
632,5372;0,122376
633,5014;0,122037
634,4656;0,121648
635,4299;0,121202
636,3941;0,120725
637,3583;0,120255
638,3226;0,119822
639,2868;0,119432
640,2510;0,119074
641,2153;0,11874
642,1795;0,118437
643,1437;0,118186
644,1080;0,117998
645,0722;0,117859
646,0364;0,117727
647,0007;0,117556
647,9649;0,117326
648,9291;0,117055
649,8934;0,116789
650,8576;0,11656
651,8218;0,11637
652,7861;0,116196
653,7503;0,11602
654,7145;0,115851
655,6788;0,11572
656,6430;0,115649
657,6072;0,115623
658,5715;0,115595
659,5357;0,115512
660,4999;0,115352
661,4642;0,11512
662,4284;0,114818
663,3926;0,114397
664,3569;0,11377
665,3211;0,112873
666,2853;0,111721
667,2496;0,110429
668,2138;0,109215
669,1780;0,10838
670,1423;0,108075
671,1065;0,108075
672,0707;0,108006
673,0350;0,107637
673,9992;0,106946
674,9634;0,106052
675,9277;0,105121
676,8919;0,104262
677,8561;0,103485
678,8204;0,102742
679,7846;0,102
680,7488;0,101275
681,7131;0,100619
682,6773;0,100073
683,6415;0,0996415
684,6058;0,0992962
685,5700;0,099
686,5342;0,0987196
687,4985;0,0984288
688,4627;0,0981129
689,4269;0,0977676
690,3912;0,0974098
691,3554;0,0970718
692,3196;0,096784
693,2839;0,0965565
694,2481;0,096374
695,2123;0,0962062
696,1766;0,0960258
697,1408;0,0958217
698,1050;0,0955996
699,0693;0,0953704
700,0335;0,0951361
700,9977;0,0948822
701,9620;0,0945821
702,9262;0,094212
703,8904;0,0937635
704,8547;0,0932671
705,8189;0,0927797
706,7831;0,092362
707,7474;0,0920479
708,7116;0,0918242
709,6758;0,0916338
710,6401;0,091403
711,6043;0,0910778
712,5685;0,0906499
713,5328;0,090158
714,4970;0,0896632
715,4612;0,0888926
716,4255;0,0885652
717,3897;0,0882897
718,3539;0,0879996
719,3182;0,0876286
720,2824;0,0871475
721,2466;0,08658
722,2109;0,0859867
723,1751;0,0854306
724,1393;0,0849478
725,1036;0,0845415
726,0678;0,0841905
727,0320;0,0838644
727,9963;0,0835368
728,9605;0,0831934
729,9247;0,0828338
730,8890;0,0824679
731,8532;0,0821094
732,8174;0,0817699
733,7817;0,0814542
734,7459;0,0811611
735,7101;0,0808872
736,6744;0,0806302
737,6386;0,0803907
738,6028;0,0801699
739,5671;0,0799656
740,5313;0,0797692
741,4955;0,0795656
742,4598;0,0793368
743,4240;0,0790677
744,3882;0,0787527
745,3525;0,0784009
746,3167;0,0780374
747,2809;0,0776957
748,2452;0,0774052
749,2094;0,0771771
750,1736;0,0769986
751,1379;0,0768393
752,1021;0,0766674
753,0663;0,0764646
754,0306;0,0762327
754,9948;0,075986
755,9590;0,0757399
756,9233;0,0755014
757,8875;0,0752702
758,8517;0,0750439
759,8160;0,0748241
760,7802;0,0746162
761,7444;0,074426
762,7087;0,074257
763,6729;0,0741102
764,6371;0,073986
765,6014;0,0738842
766,5656;0,0738002
767,5298;0,0737208
768,4941;0,0736252
769,4583;0,0734919
770,4225;0,0733089
771,3868;0,0730812
772,3510;0,0728289
773,3152;0,0725769
774,2795;0,0723415
775,2437;0,0721222
776,2079;0,0719022
777,1722;0,0716595
778,1364;0,0713814
779,1006;0,0710735
780,0649;0,070758
781,0291;0,0704622
781,9933;0,0702024
782,9576;0,0699751
783,9218;0,0697602
784,8860;0,0695349
785,8503;0,0692885
786,8145;0,0690283
787,7787;0,0687736
788,7430;0,068542
789,7072;0,0683399
790,6714;0,0681623
791,6357;0,0680022
792,5999;0,0678594
793,5641;0,0677424
794,5284;0,0676618
795,4926;0,0676214
796,4568;0,0676146
797,4211;0,0676301
798,3853;0,0676605
799,3495;0,0677068
800,3138;0,0677741
801,2780;0,0678615
802,2422;0,0679539
803,2065;0,0680228
804,1707;0,0680379
805,1349;0,0679821
806,0992;0,0678601
807,0634;0,0676953
808,0276;0,067516
808,9919;0,0673387
809,9561;0,0671598
810,9203;0,0669585
811,8846;0,0667098
812,8488;0,066398
813,8130;0,0660228
814,7773;0,0655968
815,7415;0,0651366
816,7057;0,064657
817,6700;0,0641694
818,6342;0,0636842
819,5984;0,0632132
820,5627;0,0627672
821,5269;0,0623524
822,4911;0,0619674
823,4554;0,0616062
824,4196;0,0612637
825,3839;0,0609398
826,3481;0,0606397
827,3123;0,0603699
828,2766;0,0601333
829,2408;0,0599274
830,2050;0,0597457
831,1693;0,0595804
832,1335;0,0594249
833,0977;0,0592738
834,0620;0,0591226
835,0262;0,0589679
835,9904;0,0588082
836,9547;0,0586447
837,9189;0,058483
838,8831;0,0583325
839,8474;0,0582069
840,8116;0,0581226
841,7758;0,058096
842,7401;0,0581387
843,7043;0,0582525
844,6685;0,0584264
845,6328;0,0586388
846,5970;0,0588645
847,5612;0,059084
848,5255;0,0592906
849,4897;0,0594906
850,4539;0,0596971
851,4182;0,0599198
852,3824;0,0601579
853,3466;0,0603997
854,3109;0,0606301
855,2751;0,0608397
856,2393;0,0610294
857,2036;0,0612078
858,1678;0,0613814
859,1320;0,0615477
860,0963;0,0616941
861,0605;0,0618055
862,0247;0,0618746
862,9890;0,0619073
863,9532;0,0619201
864,9174;0,0619313
865,8817;0,0619523
866,8459;0,0619843
867,8101;0,0620224
868,7744;0,0620621
869,7386;0,0621044
870,7028;0,0621568
871,6671;0,0622297
872,6313;0,0623315
873,5955;0,0624646
874,5598;0,0626239
875,5240;0,0627974
876,4882;0,0629711
877,4525;0,0631332
878,4167;0,0632794
879,3809;0,0634145
880,3452;0,0635504
881,3094;0,0637014
882,2736;0,0638786
883,2379;0,0640875
884,2021;0,0643291
885,1663;0,0646027
886,1306;0,0649094
887,0948;0,0652526
888,0590;0,0656349
889,0233;0,0660518
889,9875;0,0664876
890,9517;0,0669144
891,9160;0,067298
892,8802;0,0676076
893,8444;0,0678263
894,8087;0,0679534
895,7729;0,0680001
896,7371;0,0679783
897,7014;0,067891
898,6656;0,0677309
899,6298;0,067488
900,5941;0,0671608
901,5583;0,0667634
902,5225;0,0663227
903,4868;0,0658685
904,4510;0,0654221
905,4152;0,0649925
906,3795;0,0645809
907,3437;0,0641901
908,3079;0,0638316
909,2722;0,0635242
910,2364;0,0632868
911,2007;0,0631285
912,1649;0,0630445
913,1292;0,0630188
914,0934;0,0630334
915,0576;0,0630766
916,0219;0,0631473
916,9861;0,0632527
917,9503;0,0634021
918,9146;0,0636014
919,8788;0,0638496
920,8430;0,0641395
921,8073;0,0644614
922,7715;0,0648056
923,7357;0,0651645
924,7000;0,065534
925,6642;0,0659128
926,6284;0,0663024
927,5927;0,0667066
928,5569;0,0671302
929,5211;0,0675778
930,4854;0,0680528
931,4496;0,0685551
932,4138;0,0690812
933,3781;0,0696232
934,3423;0,0701724
935,3065;0,0707234
936,2708;0,0712781
937,2350;0,0718464
938,1992;0,0724416
939,1635;0,0730719
940,1277;0,0737336
941,0919;0,0744111
942,0562;0,0750852
943,0204;0,0757445
943,9846;0,0763931
944,9489;0,0770491
945,9131;0,0777338
946,8773;0,0784597
947,8416;0,0792235
948,8058;0,0800099
949,7700;0,0808015
950,7343;0,0815897
951,6985;0,0823792
952,6627;0,0831842
953,6270;0,0840205
954,5912;0,0848968
955,5554;0,0858112
956,5197;0,0867531
957,4839;0,0877078
958,4481;0,0886626
959,4124;0,0896088
960,3766;0,0905421
961,3408;0,0914612
962,3051;0,0923663
963,2693;0,0932588
964,2335;0,0941414
965,1978;0,0950191
966,1620;0,0958984
967,1262;0,0967872
968,0905;0,0976941
969,0547;0,0986293
970,0189;0,099605
970,9832;0,100635
971,9474;0,101736
972,9116;0,102919
973,8759;0,104195
974,8401;0,105573
975,8043;0,10706
976,7686;0,108662
977,7328;0,110381
978,6970;0,112206
979,6613;0,114113
980,6255;0,116059
981,5897;0,117995
982,5540;0,119878
983,5182;0,121679
984,4824;0,123388
985,4467;0,12501
986,4109;0,126552
987,3751;0,128015
988,3394;0,129394
989,3036;0,13068
990,2678;0,131871
991,2321;0,132972
992,1963;0,133994
993,1605;0,134951
994,1248;0,135853
995,0890;0,13671
996,0532;0,137528
997,0175;0,138318
997,9817;0,139095
998,9459;0,139879
999,9102;0,140688
1000,8744;0,141535
1001,8386;0,142432
1002,8029;0,143381
1003,7671;0,144379
1004,7313;0,145423
1005,6956;0,146505
1006,6598;0,147625
1007,6240;0,148782
1008,5883;0,14998
1009,5525;0,151219
1010,5167;0,152494
1011,4810;0,153789
1012,4452;0,155079
1013,4094;0,156332
1014,3737;0,157514
1015,3379;0,158587
1016,3021;0,159522
1017,2664;0,160294
1018,2306;0,160892
1019,1948;0,161316
1020,1591;0,161577
1021,1233;0,161693
1022,0875;0,161683
1023,0518;0,161566
1024,0160;0,161356
1024,9802;0,16106
1025,9445;0,160682
1026,9087;0,160216
1027,8729;0,159654
1028,8372;0,158985
1029,8014;0,158197
1030,7656;0,157282
1031,7299;0,156233
1032,6941;0,15505
1033,6583;0,153743
1034,6226;0,152338
1035,5868;0,150876
1036,5510;0,149415
1037,5153;0,148022
1038,4795;0,146762
1039,4437;0,145685
1040,4080;0,144817
1041,3722;0,144158
1042,3364;0,143681
1043,3007;0,143341
1044,2649;0,143087
1045,2291;0,14287
1046,1934;0,142647
1047,1576;0,14239
1048,1218;0,142083
1049,0861;0,141718
1050,0503;0,141296
1051,0145;0,140816
1051,9788;0,140277
1052,9430;0,139678
1053,9072;0,139011
1054,8715;0,138275
1055,8357;0,137462
1056,7999;0,136565
1057,7642;0,13557
1058,7284;0,134462
1059,6926;0,133233
1060,6569;0,131894
1061,6211;0,130477
1062,5853;0,129029
1063,5496;0,127602
1064,5138;0,126227
1065,4780;0,124911
1066,4423;0,123633
1067,4065;0,122363
1068,3707;0,121075
1069,3350;0,11976
1070,2992;0,118424
1071,2634;0,11708
1072,2277;0,115739
1073,1919;0,114402
1074,1561;0,113067
1075,1204;0,111731
1076,0846;0,110398
1077,0488;0,109082
1078,0131;0,107806
1078,9773;0,106596
1079,9415;0,105481
1080,9058;0,104482
1081,8700;0,103613
1082,8342;0,102876
1083,7985;0,102264
1084,7627;0,101755
1085,7269;0,101324
1086,6912;0,100938
1087,6554;0,100564
1088,6196;0,100174
1089,5839;0,0997475
1090,5481;0,0992749
1091,5123;0,0987573
1092,4766;0,098206
1093,4408;0,0976384
1094,4050;0,0970711
1095,3693;0,0965149
1096,3335;0,0959724
1097,2977;0,0954398
1098,2620;0,0949125
1099,2262;0,0943893
1100,1904;0,0938736
1101,1547;0,0933703
1102,1189;0,0928818
1103,0831;0,0924043
1104,0474;0,0919273
1105,0116;0,091437
1105,9758;0,0909196
1106,9401;0,0903654
1107,9043;0,0897702
1108,8685;0,0891341
1109,8328;0,0884585
1110,7970;0,0877425
1111,7612;0,0869808
1112,7255;0,0861658
1113,6897;0,0852919
1114,6539;0,0843629
1115,6182;0,0833956
1116,5824;0,0824184
1117,5466;0,0814639
1118,5109;0,0805584
1119,4751;0,079713
1120,4393;0,0789202
1121,4036;0,0781575
1122,3678;0,0773964
1123,3320;0,0766121
1124,2963;0,0757916
1125,2605;0,0749372
1126,2247;0,0740649
1127,1890;0,0731998
1128,1532;0,0723693
1129,1174;0,0715978
1130,0817;0,0709027
1131,0459;0,0702931
1132,0101;0,0697712
1132,9744;0,0693345
1133,9386;0,0689784
1134,9028;0,0686971
1135,8671;0,0684844
1136,8313;0,0683333
1137,7955;0,0682352
1138,7598;0,0681805
1139,7240;0,0681599
1140,6882;0,0681654
1141,6525;0,0681911
1142,6167;0,0682326
1143,5809;0,0682867
1144,5452;0,0683517
1145,5094;0,0684282
1146,4736;0,0685208
1147,4379;0,0686381
1148,4021;0,06879
1149,3663;0,0689833
1150,3306;0,0692167
1151,2948;0,0694786
1152,2590;0,069748
1153,2233;0,0699963
1154,1875;0,0701904
1155,1517;0,0702948
1156,1160;0,0702743
1157,0802;0,0700963
1158,0444;0,0697343
1159,0087;0,0691696
1159,9729;0,0683914
1160,9371;0,0673965
1161,9014;0,0661895
1162,8656;0,0647854
1163,8298;0,0632128
1164,7941;0,0615159
1165,7583;0,0597506
1166,7225;0,057977
1167,6868;0,0562489
1168,6510;0,0546057
1169,6152;0,0530706
1170,5795;0,0516532
1171,5437;0,0503561
1172,5079;0,0491802
1173,4722;0,0481265
1174,4364;0,0471943
1175,4006;0,046379
1176,3649;0,0456703
1177,3291;0,045055
1178,2933;0,04452
1179,2576;0,0440562
1180,2218;0,04366
1181,1860;0,0433317
1182,1503;0,0430737
1183,1145;0,0428875
1184,0787;0,042773
1185,0430;0,0427276
1186,0072;0,0427473
1186,9714;0,0428269
1187,9357;0,0429617
1188,8999;0,0431483
1189,8641;0,0433852
1190,8284;0,043673
1191,7926;0,0440127
1192,7568;0,0444043
1193,7211;0,044845
1194,6853;0,0453287
1195,6495;0,0458451
1196,6138;0,0463816
1197,5780;0,0469241
1198,5422;0,0474604
1199,5065;0,0479348
1200,4707;0,048443
1201,4349;0,0489316
1202,3992;0,0493996
1203,3634;0,0498438
1204,3276;0,050258
1205,2919;0,0506365
1206,2561;0,0509778
1207,2203;0,0512874
1208,1846;0,0515773
1209,1488;0,0518621
1210,1130;0,0521537
1211,0773;0,0524586
1212,0415;0,0527778
1213,0057;0,0531089
1213,9700;0,0534482
1214,9342;0,0537915
1215,8984;0,054134
1216,8627;0,0544696
1217,8269;0,0547931
1218,7911;0,055103
1219,7554;0,055402
1220,7196;0,0556952
1221,6838;0,0559855
1222,6481;0,0562695
1223,6123;0,056537
1224,5765;0,0567752
1225,5408;0,0569741
1226,5050;0,0571317
1227,4692;0,0572532
1228,4335;0,0573476
1229,3977;0,0574218
1230,3619;0,0574769
1231,3262;0,0575092
1232,2904;0,0575132
1233,2546;0,0574869
1234,2189;0,0574344
1235,1831;0,0573664
1236,1473;0,0572976
1237,1116;0,0572425
1238,0758;0,0572126
1239,0400;0,0572151
1240,0043;0,0572535
1240,9685;0,0573295
1241,9327;0,0574428
1242,8970;0,0575912
1243,8612;0,0577691
1244,8254;0,0579675
1245,7897;0,0581765
1246,7539;0,0583889
1247,7181;0,0586029
1248,6824;0,0588222
1249,6466;0,0590533
1250,6108;0,0593019
1251,5751;0,0595709
1252,5393;0,0598595
1253,5035;0,0601641
1254,4678;0,0604789
1255,4320;0,0607958
1256,3962;0,0611042
1257,3605;0,0613905
1258,3247;0,0616398
1259,2889;0,061838
1260,2532;0,0619742
1261,2174;0,0620414
1262,1816;0,0620358
1263,1459;0,0619555
1264,1101;0,061799
1265,0743;0,0615659
1266,0386;0,0612571
1267,0028;0,0608756
1267,9670;0,0604253
1268,9313;0,0599103
1269,8955;0,0593353
1270,8597;0,0587057
1271,8240;0,0580292
1272,7882;0,0573157
1273,7524;0,0565768
1274,7167;0,0558252
1275,6809;0,0550735
1276,6451;0,0543331
1277,6094;0,0536132
1278,5736;0,0529188
1279,5378;0,0522514
1280,5021;0,05161
1281,4663;0,0509943
1282,4305;0,0504056
1283,3948;0,0498476
1284,3590;0,0493248
1285,3232;0,0488425
1286,2875;0,0484071
1287,2517;0,0480256
1288,2159;0,0477043
1289,1802;0,0474453
1290,1444;0,0472448
1291,1086;0,0470933
1292,0729;0,0469813
1293,0371;0,0469038
1294,0013;0,0468626
1294,9656;0,0468631
1295,9298;0,0469093
1296,8940;0,0469982
1297,8583;0,0471202
1298,8225;0,0472632
1299,7867;0,047418
1300,7510;0,0475809
1301,7152;0,0477532
1302,6794;0,0479373
1303,6437;0,048134
1304,6079;0,0483426
1305,5721;0,0485615
1306,5364;0,0487891
1307,5006;0,0490228
1308,4648;0,0492581
1309,4291;0,049488
1310,3933;0,0497047
1311,3575;0,0499007
1312,3218;0,0500697
1313,2860;0,0502044
1314,2502;0,0502947
1315,2145;0,050327
1316,1787;0,0502871
1317,1429;0,0501672
1318,1072;0,0499733
1319,0714;0,0497271
1320,0356;0,0494593
1320,9999;0,0491971
1321,9641;0,0489544
1322,9283;0,0487324
1323,8926;0,0485268
1324,8568;0,0483362
1325,8210;0,0481649
1326,7853;0,048021
1327,7495;0,0479105
1328,7137;0,0478345
1329,6780;0,047789
1330,6422;0,047768
1331,6064;0,0477662
1332,5707;0,0477786
1333,5349;0,047798
1334,4991;0,0478116
1335,4634;0,0477991
1336,4276;0,0477362
1337,3918;0,0476036
1338,3561;0,0474023
1339,3203;0,0471643
1340,2845;0,0469423
1341,2488;0,0467774
1342,2130;0,046678
1343,1772;0,0466254
1344,1415;0,0465949
1345,1057;0,0465719
1346,0699;0,0465576
1347,0342;0,046564
1347,9984;0,046605
1348,9626;0,0466874
1349,9269;0,0468069
1350,8911;0,0469512
1351,8553;0,0471069
1352,8196;0,0472675
1353,7838;0,0474379
1354,7480;0,0476323
