TITLE;
DATA TYPE;INFRARED SPECTRUM
ORIGIN;JASCO
OWNER;
DATE;25/03/17
TIME;10:57:19
SPECTROMETER/DATA SYSTEM;
LOCALE;9226
RESOLUTION;
DELTAX;0,964233
XUNITS;1/CM
YUNITS;ABSORBANCE
FIRSTX;  399,1927
LASTX; 4000,6047
NPOINTS;    3736
FIRSTY;     0,16823
MAXY;     0,16823
MINY;     0,00051
XYDATA
399,1927;0,168234
400,1569;0,166217
401,1211;0,163415
402,0854;0,160137
403,0496;0,156821
404,0138;0,153928
404,9781;0,151798
405,9423;0,150511
406,9065;0,149841
407,8708;0,149397
408,8350;0,148884
409,7992;0,148277
410,7635;0,147813
411,7277;0,147814
412,6919;0,148485
413,6562;0,149829
414,6204;0,151714
415,5846;0,153932
416,5489;0,156155
417,5131;0,157833
418,4773;0,158322
419,4416;0,157484
420,4058;0,156025
421,3700;0,154809
422,3343;0,154157
423,2985;0,1539
424,2627;0,153722
425,2270;0,153407
426,1912;0,152959
427,1554;0,152557
428,1197;0,152393
429,0839;0,152533
430,0481;0,152896
431,0124;0,153341
431,9766;0,153776
432,9408;0,154201
433,9051;0,154646
434,8693;0,155074
435,8335;0,155341
436,7978;0,155274
437,7620;0,154795
438,7262;0,153978
439,6905;0,153014
440,6547;0,152123
441,6189;0,151468
442,5832;0,151107
443,5474;0,150972
444,5116;0,150895
445,4759;0,150675
446,4401;0,150164
447,4043;0,149313
448,3686;0,148197
449,3328;0,146989
450,2970;0,145911
451,2613;0,145157
452,2255;0,14482
453,1897;0,144869
454,1540;0,145188
455,1182;0,14562
456,0824;0,145997
457,0467;0,146139
458,0109;0,145891
458,9751;0,145205
459,9394;0,144195
460,9036;0,143085
461,8678;0,142106
462,8321;0,141426
463,7963;0,141112
464,7605;0,141124
465,7248;0,141337
466,6890;0,141603
467,6532;0,141827
468,6175;0,141986
469,5817;0,142096
470,5459;0,14216
471,5102;0,14215
472,4744;0,14203
473,4386;0,141807
474,4029;0,141537
475,3671;0,141288
476,3313;0,141108
477,2956;0,141017
478,2598;0,141028
479,2240;0,141156
480,1883;0,141404
481,1525;0,141735
482,1167;0,142065
483,0810;0,142287
484,0452;0,142333
485,0094;0,142222
485,9737;0,142055
486,9379;0,141956
487,9021;0,142006
488,8664;0,142222
489,8306;0,14257
490,7948;0,142987
491,7591;0,143398
492,7233;0,143725
493,6875;0,143914
494,6518;0,143956
495,6160;0,143907
496,5802;0,14387
497,5445;0,143958
498,5087;0,144232
499,4729;0,144676
500,4372;0,145202
501,4014;0,1457
502,3656;0,146098
503,3299;0,146394
504,2941;0,146631
505,2583;0,146834
506,2226;0,146988
507,1868;0,147059
508,1510;0,147046
509,1153;0,147015
510,0795;0,147082
511,0437;0,147352
512,0080;0,147867
512,9722;0,148598
513,9365;0,149463
514,9007;0,150358
515,8649;0,151168
516,8292;0,151766
517,7934;0,152031
518,7576;0,151901
519,7219;0,151419
520,6861;0,150733
521,6503;0,150023
522,6146;0,149434
523,5788;0,149032
524,5430;0,148802
525,5073;0,148671
526,4715;0,148555
527,4357;0,148405
528,4000;0,148213
529,3642;0,147986
530,3284;0,147729
531,2927;0,147436
532,2569;0,14711
533,2211;0,146778
534,1854;0,14648
535,1496;0,146251
536,1138;0,146099
537,0781;0,145999
538,0423;0,145916
539,0065;0,145823
539,9708;0,145721
540,9350;0,145635
541,8992;0,145608
542,8635;0,145687
543,8277;0,145912
544,7919;0,146301
545,7562;0,146839
546,7204;0,147468
547,6846;0,148106
548,6489;0,148667
549,6131;0,149096
550,5773;0,149386
551,5416;0,149573
552,5058;0,149717
553,4700;0,149876
554,4343;0,150071
555,3985;0,150279
556,3627;0,150427
557,3270;0,150422
558,2912;0,150178
559,2554;0,149644
560,2197;0,148826
561,1839;0,147785
562,1481;0,146623
563,1124;0,145457
564,0766;0,144387
565,0408;0,143469
566,0051;0,1427
566,9693;0,142035
567,9335;0,141424
568,8978;0,140844
569,8620;0,14032
570,8262;0,139909
571,7905;0,139661
572,7547;0,139588
573,7189;0,139658
574,6832;0,139807
575,6474;0,139967
576,6116;0,140083
577,5759;0,140119
578,5401;0,140046
579,5043;0,139848
580,4686;0,139528
581,4328;0,13913
582,3970;0,138734
583,3613;0,138428
584,3255;0,138261
585,2897;0,138222
586,2540;0,138244
587,2182;0,138256
588,1824;0,138221
589,1467;0,138154
590,1109;0,138097
591,0751;0,138077
592,0394;0,13807
593,0036;0,138012
593,9678;0,137839
594,9321;0,13753
595,8963;0,137118
596,8605;0,136669
597,8248;0,136245
598,7890;0,135875
599,7532;0,13555
600,7175;0,135246
601,6817;0,134946
602,6459;0,134654
603,6102;0,134388
604,5744;0,134156
605,5386;0,133945
606,5029;0,133711
607,4671;0,133396
608,4313;0,13295
609,3956;0,132363
610,3598;0,13169
611,3240;0,131047
612,2883;0,130575
613,2525;0,130376
614,2167;0,130443
615,1810;0,130618
616,1452;0,130626
617,1094;0,130185
618,0737;0,129158
619,0379;0,127637
620,0021;0,125891
620,9664;0,124226
621,9306;0,122852
622,8948;0,121834
623,8591;0,12111
624,8233;0,120497
625,7875;0,120008
626,7518;0,119576
627,7160;0,119171
628,6802;0,118763
629,6445;0,118326
630,6087;0,117827
631,5729;0,117257
632,5372;0,116636
633,5014;0,11601
634,4656;0,115437
635,4299;0,114965
636,3941;0,11462
637,3583;0,114398
638,3226;0,114265
639,2868;0,11417
640,2510;0,114061
641,2153;0,113902
642,1795;0,113692
643,1437;0,113459
644,1080;0,113247
645,0722;0,113086
646,0364;0,112976
647,0007;0,112883
647,9649;0,112765
648,9291;0,112596
649,8934;0,112389
650,8576;0,112192
651,8218;0,112065
652,7861;0,112054
653,7503;0,112174
654,7145;0,112397
655,6788;0,112667
656,6430;0,112913
657,6072;0,113083
658,5715;0,113152
659,5357;0,113112
660,4999;0,112928
661,4642;0,112514
662,4284;0,111737
663,3926;0,110464
664,3569;0,10869
665,3211;0,106752
666,2853;0,10541
667,2496;0,10541
668,2138;0,106452
669,1780;0,107286
670,1423;0,107427
671,1065;0,10717
672,0707;0,106612
673,0350;0,105702
673,9992;0,104533
674,9634;0,103322
675,9277;0,10224
676,8919;0,101295
677,8561;0,100382
678,8204;0,0994064
679,7846;0,0983617
680,7488;0,0973101
681,7131;0,0963273
682,6773;0,0954459
683,6415;0,0946608
684,6058;0,0939551
685,5700;0,0933236
686,5342;0,0927694
687,4985;0,0922868
688,4627;0,0918656
689,4269;0,0914743
690,3912;0,0911001
691,3554;0,0907523
692,3196;0,0904437
693,2839;0,0901661
694,2481;0,0898839
695,2123;0,089551
696,1766;0,0891398
697,1408;0,0886619
698,1050;0,0881642
699,0693;0,0877034
700,0335;0,0873142
700,9977;0,0869911
701,9620;0,0866934
702,9262;0,0863675
703,8904;0,0859532
704,8547;0,085453
705,8189;0,0849004
706,7831;0,0843447
707,7474;0,0838249
708,7116;0,0833519
709,6758;0,0829053
710,6401;0,0824422
711,6043;0,0819144
712,5685;0,0812888
713,5328;0,0805665
714,4970;0,07979
715,4612;0,0777351
716,4255;0,0773355
717,3897;0,0771499
718,3539;0,0770583
719,3182;0,0768476
720,2824;0,0763137
721,2466;0,0753798
722,2109;0,0741429
723,1751;0,0728134
724,1393;0,0715994
725,1036;0,0706164
726,0678;0,0698655
727,0320;0,0692697
727,9963;0,0687356
728,9605;0,0682031
729,9247;0,067659
730,8890;0,067118
731,8532;0,0665957
732,8174;0,0660937
733,7817;0,0656044
734,7459;0,0651227
735,7101;0,0646548
736,6744;0,0642146
737,6386;0,0638141
738,6028;0,0634552
739,5671;0,063128
740,5313;0,0628164
741,4955;0,062506
742,4598;0,0621888
743,4240;0,0618633
744,3882;0,06153
745,3525;0,0611883
746,3167;0,0608342
747,2809;0,0604637
748,2452;0,0600767
749,2094;0,0596807
750,1736;0,0592905
751,1379;0,0589222
752,1021;0,0585858
753,0663;0,058279
754,0306;0,0579877
754,9948;0,0576939
755,9590;0,0573859
756,9233;0,0570654
757,8875;0,0567451
758,8517;0,056439
759,8160;0,056152
760,7802;0,0558759
761,7444;0,0555949
762,7087;0,0552975
763,6729;0,0549848
764,6371;0,0546717
765,6014;0,0543778
766,5656;0,0541172
767,5298;0,053893
768,4941;0,0536985
769,4583;0,0535232
770,4225;0,0533583
771,3868;0,0531975
772,3510;0,0530351
773,3152;0,0528645
774,2795;0,0526797
775,2437;0,0524784
776,2079;0,0522644
777,1722;0,0520463
778,1364;0,0518325
779,1006;0,0516273
780,0649;0,0514284
781,0291;0,0512287
781,9933;0,0510201
782,9576;0,0507962
783,9218;0,050554
784,8860;0,0502943
785,8503;0,05002
786,8145;0,0497367
787,7787;0,0494514
788,7430;0,0491723
789,7072;0,048907
790,6714;0,0486607
791,6357;0,0484349
792,5999;0,0482271
793,5641;0,0480309
794,5284;0,0478387
795,4926;0,0476442
796,4568;0,0474451
797,4211;0,0472439
798,3853;0,047046
799,3495;0,0468563
800,3138;0,0466747
801,2780;0,046496
802,2422;0,046312
803,2065;0,0461179
804,1707;0,0459175
805,1349;0,0457233
806,0992;0,0455517
807,0634;0,0454143
808,0276;0,0453109
808,9919;0,0452276
809,9561;0,0451419
810,9203;0,0450331
811,8846;0,0448918
812,8488;0,0447251
813,8130;0,0445553
814,7773;0,0444107
815,7415;0,0443143
816,7057;0,0442736
817,6700;0,0442763
818,6342;0,0442942
819,5984;0,0442928
820,5627;0,044244
821,5269;0,044135
822,4911;0,0439709
823,4554;0,0437711
824,4196;0,0435607
825,3839;0,0433625
826,3481;0,0431911
827,3123;0,0430507
828,2766;0,0429369
829,2408;0,0428403
830,2050;0,0427508
831,1693;0,042661
832,1335;0,0425669
833,0977;0,0424668
834,0620;0,0423592
835,0262;0,0422407
835,9904;0,0421067
836,9547;0,0419529
837,9189;0,0417777
838,8831;0,0415829
839,8474;0,0413747
840,8116;0,0411632
841,7758;0,0409616
842,7401;0,0407842
843,7043;0,0406419
844,6685;0,0405367
845,6328;0,0404586
846,5970;0,0403878
847,5612;0,0403037
848,5255;0,0401963
849,4897;0,040071
850,4539;0,0399451
851,4182;0,0398348
852,3824;0,0397435
853,3466;0,0396585
854,3109;0,0395606
855,2751;0,0394393
856,2393;0,0393023
857,2036;0,0391736
858,1678;0,0390784
859,1320;0,0390276
860,0963;0,0390109
861,0605;0,0390042
862,0247;0,0389859
862,9890;0,0389503
863,9532;0,0389111
864,9174;0,0388918
865,8817;0,0389115
866,8459;0,038975
867,8101;0,0390723
868,7744;0,0391859
869,7386;0,0393009
870,7028;0,0394092
871,6671;0,0395099
872,6313;0,0396044
873,5955;0,0396939
874,5598;0,039779
875,5240;0,0398621
876,4882;0,0399496
877,4525;0,040052
878,4167;0,0401806
879,3809;0,0403456
880,3452;0,0405536
881,3094;0,040807
882,2736;0,0411054
883,2379;0,0414455
884,2021;0,0418217
885,1663;0,0422273
886,1306;0,0426557
887,0948;0,0431027
888,0590;0,0435677
889,0233;0,0440527
889,9875;0,0445587
890,9517;0,0450806
891,9160;0,0456025
892,8802;0,0460972
893,8444;0,0465309
894,8087;0,0468714
895,7729;0,0470979
896,7371;0,0472053
897,7014;0,0472029
898,6656;0,0471063
899,6298;0,0469288
900,5941;0,0466768
901,5583;0,0463534
902,5225;0,0459651
903,4868;0,0455298
904,4510;0,0450773
905,4152;0,0446424
906,3795;0,0442553
907,3437;0,0439333
908,3079;0,0436794
909,2722;0,0434872
910,2364;0,0433476
911,2007;0,0432535
912,1649;0,0432004
913,1292;0,0431844
914,0934;0,0432014
915,0576;0,0432472
916,0219;0,04332
916,9861;0,0434211
917,9503;0,0435528
918,9146;0,0437147
919,8788;0,0439009
920,8430;0,0440998
921,8073;0,0442984
922,7715;0,0444872
923,7357;0,0446636
924,7000;0,0448312
925,6642;0,0449949
926,6284;0,0451546
927,5927;0,0453035
928,5569;0,0454313
929,5211;0,0455321
930,4854;0,0456121
931,4496;0,0456904
932,4138;0,0457927
933,3781;0,0459403
934,3423;0,0461414
935,3065;0,0463897
936,2708;0,046672
937,2350;0,0469784
938,1992;0,0473097
939,1635;0,047676
940,1277;0,0480911
941,0919;0,0485652
942,0562;0,0491015
943,0204;0,0496978
943,9846;0,0503489
944,9489;0,0510466
945,9131;0,0517788
946,8773;0,0525285
947,8416;0,0532767
948,8058;0,05401
949,7700;0,0547276
950,7343;0,055443
951,6985;0,0561797
952,6627;0,0569605
953,6270;0,0577982
954,5912;0,0586915
955,5554;0,0596281
956,5197;0,060591
957,4839;0,0615662
958,4481;0,0625467
959,4124;0,0635333
960,3766;0,0645328
961,3408;0,0655543
962,3051;0,0666065
963,2693;0,0676942
964,2335;0,0688175
965,1978;0,0699717
966,1620;0,0711506
967,1262;0,0723496
968,0905;0,0735692
969,0547;0,0748174
970,0189;0,0761111
970,9832;0,077475
971,9474;0,0789403
972,9116;0,0805401
973,8759;0,0823026
974,8401;0,0842439
975,8043;0,0863627
976,7686;0,0886384
977,7328;0,0910338
978,6970;0,0934997
979,6613;0,0959781
980,6255;0,0984047
981,5897;0,100712
982,5540;0,102835
983,5182;0,104726
984,4824;0,106362
985,4467;0,107756
986,4109;0,108952
987,3751;0,110008
988,3394;0,11098
989,3036;0,111903
990,2678;0,112789
991,2321;0,113631
992,1963;0,114413
993,1605;0,115125
994,1248;0,115764
995,0890;0,116335
996,0532;0,116847
997,0175;0,117305
997,9817;0,117711
998,9459;0,118068
999,9102;0,118388
1000,8744;0,118694
1001,8386;0,119022
1002,8029;0,119416
1003,7671;0,119916
1004,7313;0,120552
1005,6956;0,121333
1006,6598;0,122258
1007,6240;0,123315
1008,5883;0,124492
1009,5525;0,125778
1010,5167;0,12716
1011,4810;0,12862
1012,4452;0,130129
1013,4094;0,131651
1014,3737;0,133154
1015,3379;0,134616
1016,3021;0,13603
1017,2664;0,137398
1018,2306;0,138726
1019,1948;0,140012
1020,1591;0,141246
1021,1233;0,142419
1022,0875;0,143527
1023,0518;0,144581
1024,0160;0,145603
1024,9802;0,146622
1025,9445;0,147654
1026,9087;0,148692
1027,8729;0,149697
1028,8372;0,150589
1029,8014;0,151265
1030,7656;0,151611
1031,7299;0,151532
1032,6941;0,150971
1033,6583;0,14993
1034,6226;0,148466
1035,5868;0,146684
1036,5510;0,144726
1037,5153;0,142743
1038,4795;0,140889
1039,4437;0,139295
1040,4080;0,138056
1041,3722;0,137216
1042,3364;0,136766
1043,3007;0,13665
1044,2649;0,136782
1045,2291;0,137066
1046,1934;0,137418
1047,1576;0,137771
1048,1218;0,138073
1049,0861;0,138279
1050,0503;0,138348
1051,0145;0,138241
1051,9788;0,13793
1052,9430;0,137406
1053,9072;0,136675
1054,8715;0,135748
1055,8357;0,134622
1056,7999;0,133268
1057,7642;0,13163
1058,7284;0,129651
1059,6926;0,127305
1060,6569;0,12462
1061,6211;0,12169
1062,5853;0,118649
1063,5496;0,115641
1064,5138;0,112783
1065,4780;0,110146
1066,4423;0,107753
1067,4065;0,10559
1068,3707;0,103625
1069,3350;0,101819
1070,2992;0,100127
1071,2634;0,098503
1072,2277;0,096903
1073,1919;0,0952878
1074,1561;0,0936294
1075,1204;0,091915
1076,0846;0,0901503
1077,0488;0,0883599
1078,0131;0,0865851
1078,9773;0,0848782
1079,9415;0,0832939
1080,9058;0,0818777
1081,8700;0,0806568
1082,8342;0,0796368
1083,7985;0,0788051
1084,7627;0,0781388
1085,7269;0,0776136
1086,6912;0,0772094
1087,6554;0,0769116
1088,6196;0,0767105
1089,5839;0,0765983
1090,5481;0,076567
1091,5123;0,0766073
1092,4766;0,0767079
1093,4408;0,0768567
1094,4050;0,0770426
1095,3693;0,077257
1096,3335;0,0774946
1097,2977;0,0777516
1098,2620;0,0780236
1099,2262;0,0783024
1100,1904;0,0785757
1101,1547;0,078827
1102,1189;0,0790383
1103,0831;0,0791924
1104,0474;0,0792762
1105,0116;0,0792838
1105,9758;0,0792177
1106,9401;0,0790845
1107,9043;0,0788867
1108,8685;0,0786123
1109,8328;0,0782286
1110,7970;0,0776876
1111,7612;0,0769432
1112,7255;0,075974
1113,6897;0,0748001
1114,6539;0,0734842
1115,6182;0,0721139
1116,5824;0,070776
1117,5466;0,0695319
1118,5109;0,0684061
1119,4751;0,0673874
1120,4393;0,0664385
1121,4036;0,0655074
1122,3678;0,0645374
1123,3320;0,063476
1124,2963;0,0622862
1125,2605;0,060957
1126,2247;0,059509
1127,1890;0,05799
1128,1532;0,056459
1129,1174;0,0549667
1130,0817;0,0535401
1131,0459;0,0521818
1132,0101;0,0508815
1132,9744;0,0496335
1133,9386;0,0484495
1134,9028;0,04736
1135,8671;0,0464052
1136,8313;0,045622
1137,7955;0,0450344
1138,7598;0,04465
1139,7240;0,0444618
1140,6882;0,0444511
1141,6525;0,0445908
1142,6167;0,0448476
1143,5809;0,0451867
1144,5452;0,0455771
1145,5094;0,0459966
1146,4736;0,0464332
1147,4379;0,0468842
1148,4021;0,0473518
1149,3663;0,0478403
1150,3306;0,0483527
1151,2948;0,0488888
1152,2590;0,0494418
1153,2233;0,0499955
1154,1875;0,0505238
1155,1517;0,0509925
1156,1160;0,0513632
1157,0802;0,051596
1158,0444;0,0516483
1159,0087;0,0514724
1159,9729;0,0510147
1160,9371;0,0502239
1161,9014;0,0490656
1162,8656;0,0475392
1163,8298;0,0456888
1164,7941;0,0435997
1165,7583;0,0413825
1166,7225;0,0391503
1167,6868;0,0369981
1168,6510;0,0349912
1169,6152;0,0331651
1170,5795;0,0315323
1171,5437;0,0300921
1172,5079;0,0288366
1173,4722;0,0277534
1174,4364;0,026825
1175,4006;0,026029
1176,3649;0,0253421
1177,3291;0,0247449
1178,2933;0,0242271
1179,2576;0,0237875
1180,2218;0,0234286
1181,1860;0,0231495
1182,1503;0,0229415
1183,1145;0,0227891
1184,0787;0,0226779
1185,0430;0,0226016
1186,0072;0,0225652
1186,9714;0,0225811
1187,9357;0,0226614
1188,8999;0,0228092
1189,8641;0,0230171
1190,8284;0,0232709
1191,7926;0,0235575
1192,7568;0,0238707
1193,7211;0,0242113
1194,6853;0,0245828
1195,6495;0,0249844
1196,6138;0,0254072
1197,5780;0,0258358
1198,5422;0,026253
1199,5065;0,0264728
1200,4707;0,0268541
1201,4349;0,0272029
1202,3992;0,0275173
1203,3634;0,0277944
1204,3276;0,0280311
1205,2919;0,0282252
1206,2561;0,0283789
1207,2203;0,0284992
1208,1846;0,0285983
1209,1488;0,028693
1210,1130;0,0288036
1211,0773;0,0289517
1212,0415;0,0291556
1213,0057;0,0294257
1213,9700;0,0297608
1214,9342;0,0301497
1215,8984;0,0305756
1216,8627;0,031021
1217,8269;0,0314717
1218,7911;0,0319201
1219,7554;0,0323615
1220,7196;0,0327929
1221,6838;0,0332103
1222,6481;0,0336096
1223,6123;0,0339875
1224,5765;0,0343423
1225,5408;0,0346741
1226,5050;0,0349851
1227,4692;0,0352786
1228,4335;0,0355578
1229,3977;0,0358239
1230,3619;0,0360747
1231,3262;0,0363043
1232,2904;0,0365046
1233,2546;0,0366688
1234,2189;0,0367941
1235,1831;0,0368825
1236,1473;0,0369402
1237,1116;0,0369749
1238,0758;0,0369941
1239,0400;0,0370047
1240,0043;0,0370121
1240,9685;0,03702
1241,9327;0,0370284
1242,8970;0,0370332
1243,8612;0,0370259
1244,8254;0,0369965
1245,7897;0,0369378
1246,7539;0,036848
1247,7181;0,0367315
1248,6824;0,0365967
1249,6466;0,0364522
1250,6108;0,0363048
1251,5751;0,03616
1252,5393;0,0360232
1253,5035;0,0359012
1254,4678;0,0358007
1255,4320;0,035725
1256,3962;0,0356707
1257,3605;0,0356273
1258,3247;0,03558
1259,2889;0,0355146
1260,2532;0,0354224
1261,2174;0,035301
1262,1816;0,0351526
1263,1459;0,0349813
1264,1101;0,0347907
1265,0743;0,0345846
1266,0386;0,0343673
1267,0028;0,0341435
1267,9670;0,0339159
1268,9313;0,0336833
1269,8955;0,0334398
1270,8597;0,0331786
1271,8240;0,0328958
1272,7882;0,0325956
1273,7524;0,0322907
1274,7167;0,0319996
1275,6809;0,0317403
1276,6451;0,0315223
1277,6094;0,031341
1278,5736;0,0311766
1279,5378;0,031001
1280,5021;0,0307897
1281,4663;0,0305337
1282,4305;0,0302446
1283,3948;0,029949
1284,3590;0,0296762
1285,3232;0,0294456
1286,2875;0,0292616
1287,2517;0,0291159
1288,2159;0,0289968
1289,1802;0,0288969
1290,1444;0,0288167
1291,1086;0,0287618
1292,0729;0,0287385
1293,0371;0,0287516
1294,0013;0,0288044
1294,9656;0,0289003
1295,9298;0,0290426
1296,8940;0,0292337
1297,8583;0,0294735
1298,8225;0,029759
1299,7867;0,0300852
1300,7510;0,0304458
1301,7152;0,0308362
1302,6794;0,0312502
1303,6437;0,0316811
1304,6079;0,0321252
1305,5721;0,032583
1306,5364;0,0330598
1307,5006;0,0335633
1308,4648;0,0340977
1309,4291;0,034658
1310,3933;0,0352281
1311,3575;0,035783
1312,3218;0,0362964
1313,2860;0,0367475
1314,2502;0,0371234
1315,2145;0,037413
1316,1787;0,0376008
1317,1429;0,0376656
1318,1072;0,0375908
1319,0714;0,0373805
1320,0356;0,0370675
1320,9999;0,036705
1321,9641;0,0363454
1322,9283;0,0360233
1323,8926;0,0357524
1324,8568;0,0355328
1325,8210;0,0353605
1326,7853;0,0352324
1327,7495;0,0351451
1328,7137;0,035091
1329,6780;0,0350563
1330,6422;0,0350239
1331,6064;0,0349804
1332,5707;0,0349217
1333,5349;0,0348561
1334,4991;0,0347963
1335,4634;0,0347472
1336,4276;0,0346906
1337,3918;0,0345779
1338,3561;0,0343421
1339,3203;0,0339424
1340,2845;0,0334083
1341,2488;0,0328301
1342,2130;0,032302
1343,1772;0,0318776
1344,1415;0,0315682
1345,1057;0,0313619
1346,0699;0,0312401
1347,0342;0,0311859
1347,9984;0,0311888
1348,9626;0,0312455
1349,9269;0,0313558
1350,8911;0,0315158
1351,8553;0,0317139
1352,8196;0,0319318
1353,7838;0,0321518
