TITLE;
DATA TYPE;INFRARED SPECTRUM
ORIGIN;JASCO
OWNER;
DATE;25/03/17
TIME;11:13:16
SPECTROMETER/DATA SYSTEM;
LOCALE;9226
RESOLUTION;
DELTAX;0,964233
XUNITS;1/CM
YUNITS;ABSORBANCE
FIRSTX;  399,1927
LASTX; 4000,6047
NPOINTS;    3736
FIRSTY;     0,20003
MAXY;     0,28037
MINY;     0,01088
XYDATA
399,1927;0,200028
400,1569;0,200753
401,1211;0,201562
402,0854;0,202415
403,0496;0,203268
404,0138;0,204099
404,9781;0,204889
405,9423;0,205644
406,9065;0,206405
407,8708;0,207262
408,8350;0,208305
409,7992;0,209562
410,7635;0,210938
411,7277;0,212221
412,6919;0,213185
413,6562;0,213702
414,6204;0,213788
415,5846;0,21358
416,5489;0,213343
417,5131;0,213501
418,4773;0,214504
419,4416;0,216394
420,4058;0,218598
421,3700;0,220451
422,3343;0,221685
423,2985;0,222381
424,2627;0,222772
425,2270;0,223102
426,1912;0,22353
427,1554;0,224056
428,1197;0,224535
429,0839;0,224769
430,0481;0,22463
431,0124;0,224141
431,9766;0,223486
432,9408;0,222931
433,9051;0,222707
434,8693;0,222916
435,8335;0,223495
436,7978;0,224252
437,7620;0,224952
438,7262;0,225413
439,6905;0,22555
440,6547;0,225388
441,6189;0,225034
442,5832;0,224623
443,5474;0,224248
444,5116;0,223897
445,4759;0,223478
446,4401;0,222905
447,4043;0,222188
448,3686;0,221452
449,3328;0,220892
450,2970;0,220669
451,2613;0,220812
452,2255;0,221185
453,1897;0,221555
454,1540;0,221714
455,1182;0,221565
456,0824;0,221167
457,0467;0,220692
458,0109;0,220336
458,9751;0,220194
459,9394;0,220231
460,9036;0,220356
461,8678;0,220511
462,8321;0,220689
463,7963;0,22089
464,7605;0,221081
465,7248;0,221184
466,6890;0,221128
467,6532;0,220897
468,6175;0,220552
469,5817;0,220189
470,5459;0,219893
471,5102;0,219696
472,4744;0,219576
473,4386;0,21951
474,4029;0,219513
475,3671;0,219645
476,3313;0,219955
477,2956;0,220433
478,2598;0,220994
479,2240;0,221505
480,1883;0,221846
481,1525;0,221973
482,1167;0,221935
483,0810;0,221843
484,0452;0,22181
485,0094;0,221902
485,9737;0,222127
486,9379;0,222458
487,9021;0,222864
488,8664;0,223315
489,8306;0,223765
490,7948;0,224144
491,7591;0,224386
492,7233;0,224471
493,6875;0,224458
494,6518;0,224455
495,6160;0,224559
496,5802;0,224794
497,5445;0,225108
498,5087;0,225407
499,4729;0,225618
500,4372;0,225731
501,4014;0,225803
502,3656;0,225923
503,3299;0,226146
504,2941;0,226467
505,2583;0,226831
506,2226;0,227182
507,1868;0,227495
508,1510;0,227786
509,1153;0,22809
510,0795;0,228432
511,0437;0,228806
512,0080;0,229172
512,9722;0,22948
513,9365;0,229695
514,9007;0,229822
515,8649;0,229905
516,8292;0,230012
517,7934;0,230192
518,7576;0,230435
519,7219;0,230686
520,6861;0,23088
521,6503;0,230987
522,6146;0,231008
523,5788;0,230953
524,5430;0,230812
525,5073;0,230557
526,4715;0,230169
527,4357;0,229677
528,4000;0,229155
529,3642;0,228687
530,3284;0,228315
531,2927;0,228024
532,2569;0,227759
533,2211;0,227468
534,1854;0,227149
535,1496;0,226848
536,1138;0,226633
537,0781;0,226535
538,0423;0,226529
539,0065;0,226548
539,9708;0,226525
540,9350;0,226434
541,8992;0,226304
542,8635;0,2262
543,8277;0,226188
544,7919;0,22631
545,7562;0,226573
546,7204;0,226954
547,6846;0,227413
548,6489;0,227911
549,6131;0,22842
550,5773;0,228929
551,5416;0,229425
552,5058;0,229893
553,4700;0,230303
554,4343;0,230614
555,3985;0,230783
556,3627;0,230769
557,3270;0,230538
558,2912;0,23006
559,2554;0,229311
560,2197;0,228289
561,1839;0,227038
562,1481;0,225658
563,1124;0,224291
564,0766;0,223084
565,0408;0,222134
566,0051;0,221461
566,9693;0,221005
567,9335;0,220656
568,8978;0,220302
569,8620;0,219874
570,8262;0,21936
571,7905;0,218792
572,7547;0,218224
573,7189;0,217704
574,6832;0,217265
575,6474;0,216925
576,6116;0,216676
577,5759;0,216499
578,5401;0,216366
579,5043;0,216251
580,4686;0,216139
581,4328;0,216017
582,3970;0,215873
583,3613;0,215689
584,3255;0,215453
585,2897;0,215171
586,2540;0,214879
587,2182;0,214629
588,1824;0,214467
589,1467;0,214405
590,1109;0,21441
591,0751;0,214422
592,0394;0,214381
593,0036;0,214257
593,9678;0,214049
594,9321;0,213767
595,8963;0,213413
596,8605;0,212981
597,8248;0,212478
598,7890;0,211935
599,7532;0,211404
600,7175;0,21093
601,6817;0,210523
602,6459;0,210156
603,6102;0,209788
604,5744;0,209389
605,5386;0,208947
606,5029;0,208455
607,4671;0,207893
608,4313;0,207227
609,3956;0,206426
610,3598;0,205491
611,3240;0,204461
612,2883;0,203407
613,2525;0,20239
614,2167;0,201441
615,1810;0,200548
616,1452;0,199663
617,1094;0,198731
618,0737;0,197709
619,0379;0,196583
620,0021;0,195364
620,9664;0,194077
621,9306;0,192748
622,8948;0,191413
623,8591;0,190117
624,8233;0,1889
625,7875;0,187861
626,7518;0,187039
627,7160;0,186427
628,6802;0,185962
629,6445;0,18554
630,6087;0,185047
631,5729;0,184397
632,5372;0,183575
633,5014;0,18264
634,4656;0,181705
635,4299;0,180884
636,3941;0,180243
637,3583;0,179773
638,3226;0,179403
639,2868;0,179037
640,2510;0,178595
641,2153;0,178033
642,1795;0,17735
643,1437;0,176584
644,1080;0,175788
645,0722;0,175021
646,0364;0,17433
647,0007;0,173735
647,9649;0,173231
648,9291;0,172793
649,8934;0,172395
650,8576;0,172033
651,8218;0,17173
652,7861;0,171529
653,7503;0,171465
654,7145;0,171539
655,6788;0,171699
656,6430;0,171869
657,6072;0,171982
658,5715;0,172023
659,5357;0,172023
660,4999;0,172014
661,4642;0,17197
662,4284;0,17178
663,3926;0,17128
664,3569;0,170318
665,3211;0,168834
666,2853;0,166918
667,2496;0,164853
668,2138;0,163054
669,1780;0,161888
670,1423;0,16136
671,1065;0,161049
672,0707;0,160479
673,0350;0,1594
673,9992;0,157829
674,9634;0,155968
675,9277;0,154077
676,8919;0,152343
677,8561;0,150807
678,8204;0,149418
679,7846;0,148125
680,7488;0,146927
681,7131;0,145855
682,6773;0,144922
683,6415;0,144115
684,6058;0,143406
685,5700;0,142784
686,5342;0,142251
687,4985;0,141805
688,4627;0,141429
689,4269;0,141087
690,3912;0,140754
691,3554;0,140422
692,3196;0,140099
693,2839;0,13979
694,2481;0,139488
695,2123;0,139179
696,1766;0,138848
697,1408;0,138491
698,1050;0,138116
699,0693;0,13773
700,0335;0,137335
700,9977;0,136924
701,9620;0,136479
702,9262;0,135985
703,8904;0,135434
704,8547;0,134845
705,8189;0,134254
706,7831;0,133695
707,7474;0,133181
708,7116;0,132698
709,6758;0,132209
710,6401;0,131675
711,6043;0,131068
712,5685;0,130386
713,5328;0,129643
714,4970;0,12886
715,4612;0,127644
716,4255;0,12691
717,3897;0,126187
718,3539;0,125441
719,3182;0,124633
720,2824;0,123744
721,2466;0,122791
722,2109;0,121819
723,1751;0,120871
724,1393;0,11997
725,1036;0,119111
726,0678;0,118275
727,0320;0,11744
727,9963;0,116599
728,9605;0,115759
729,9247;0,114936
730,8890;0,114148
731,8532;0,113406
732,8174;0,112715
733,7817;0,112071
734,7459;0,111468
735,7101;0,110899
736,6744;0,110361
737,6386;0,109858
738,6028;0,109389
739,5671;0,108945
740,5313;0,108508
741,4955;0,108052
742,4598;0,107564
743,4240;0,107041
744,3882;0,106497
745,3525;0,105951
746,3167;0,105415
747,2809;0,104892
748,2452;0,104382
749,2094;0,103885
750,1736;0,103403
751,1379;0,102935
752,1021;0,102473
753,0663;0,102006
754,0306;0,101522
754,9948;0,101021
755,9590;0,100516
756,9233;0,100023
757,8875;0,0995557
758,8517;0,0991147
759,8160;0,0986913
760,7802;0,0982753
761,7444;0,0978619
762,7087;0,0974526
763,6729;0,0970521
764,6371;0,0966628
765,6014;0,0962841
766,5656;0,0959152
767,5298;0,0955587
768,4941;0,0952212
769,4583;0,0949088
770,4225;0,0946209
771,3868;0,0943475
772,3510;0,0940714
773,3152;0,0937771
774,2795;0,0934592
775,2437;0,0931276
776,2079;0,0928027
777,1722;0,0925043
778,1364;0,0922378
779,1006;0,0919875
780,0649;0,0917199
781,0291;0,0913965
781,9933;0,0909891
782,9576;0,0904901
783,9218;0,0899139
784,8860;0,0892909
785,8503;0,0886593
786,8145;0,0880561
787,7787;0,0875103
788,7430;0,0870379
789,7072;0,086638
790,6714;0,0862946
791,6357;0,0859841
792,5999;0,0856856
793,5641;0,0853898
794,5284;0,0851003
795,4926;0,0848268
796,4568;0,0845755
797,4211;0,0843438
798,3853;0,0841217
799,3495;0,0838982
800,3138;0,0836676
801,2780;0,0834316
802,2422;0,0831971
803,2065;0,0829715
804,1707;0,0827598
805,1349;0,0825635
806,0992;0,0823814
807,0634;0,0822105
808,0276;0,0820471
808,9919;0,0818881
809,9561;0,0817318
810,9203;0,0815791
811,8846;0,0814328
812,8488;0,081297
813,8130;0,081174
814,7773;0,0810619
815,7415;0,0809531
816,7057;0,0808373
817,6700;0,080707
818,6342;0,0805633
819,5984;0,0804179
820,5627;0,0802884
821,5269;0,0801881
822,4911;0,0801168
823,4554;0,0800592
824,4196;0,0799924
825,3839;0,0798983
826,3481;0,0797735
827,3123;0,0796293
828,2766;0,0794826
829,2408;0,0793428
830,2050;0,079204
831,1693;0,0790464
832,1335;0,0788472
833,0977;0,0785944
834,0620;0,0782944
835,0262;0,0779705
835,9904;0,0776521
836,9547;0,077361
837,9189;0,077102
838,8831;0,0768637
839,8474;0,0766271
840,8116;0,0763768
841,7758;0,0761082
842,7401;0,0758274
843,7043;0,0755447
844,6685;0,075269
845,6328;0,0750066
846,5970;0,0747636
847,5612;0,0745495
848,5255;0,0743744
849,4897;0,0742434
850,4539;0,0741505
851,4182;0,0740777
852,3824;0,0740024
853,3466;0,0739081
854,3109;0,0737915
855,2751;0,0736632
856,2393;0,0735403
857,2036;0,0734374
858,1678;0,0733601
859,1320;0,0733041
860,0963;0,07326
861,0605;0,0732194
862,0247;0,0731814
862,9890;0,073155
863,9532;0,073157
864,9174;0,0732058
865,8817;0,0733125
866,8459;0,0734756
867,8101;0,0736807
868,7744;0,0739073
869,7386;0,0741371
870,7028;0,0743598
871,6671;0,0745733
872,6313;0,0747788
873,5955;0,0749765
874,5598;0,0751641
875,5240;0,0753399
876,4882;0,0755079
877,4525;0,0756799
878,4167;0,0758747
879,3809;0,0761147
880,3452;0,0764212
881,3094;0,0768109
882,2736;0,0772931
883,2379;0,077869
884,2021;0,0785329
885,1663;0,0792755
886,1306;0,0800884
887,0948;0,0809661
888,0590;0,0819047
889,0233;0,0828965
889,9875;0,0839253
890,9517;0,0849633
891,9160;0,0859735
892,8802;0,0869149
893,8444;0,0877483
894,8087;0,08844
895,7729;0,0889636
896,7371;0,0892994
897,7014;0,0894342
898,6656;0,0893615
899,6298;0,089082
900,5941;0,0886062
901,5583;0,087958
902,5225;0,0871771
903,4868;0,0863193
904,4510;0,0854498
905,4152;0,0846316
906,3795;0,0839111
907,3437;0,08331
908,3079;0,0828264
909,2722;0,0824466
910,2364;0,082159
911,2007;0,0819633
912,1649;0,0818681
913,1292;0,0818807
914,0934;0,0819965
915,0576;0,0821963
916,0219;0,0824542
916,9861;0,08275
917,9503;0,0830759
918,9146;0,083434
919,8788;0,0838254
920,8430;0,084241
921,8073;0,0846599
922,7715;0,0850585
923,7357;0,0854214
924,7000;0,0857478
925,6642;0,0860475
926,6284;0,0863314
927,5927;0,0866044
928,5569;0,0868647
929,5211;0,08711
930,4854;0,0873436
931,4496;0,0875768
932,4138;0,0878243
933,3781;0,0880992
934,3423;0,0884101
935,3065;0,0887632
936,2708;0,0891659
937,2350;0,08963
938,1992;0,0901708
939,1635;0,0908031
940,1277;0,0915379
941,0919;0,092379
942,0562;0,0933232
943,0204;0,0943622
943,9846;0,0954854
944,9489;0,0966836
945,9131;0,0979506
946,8773;0,0992833
947,8416;0,100679
948,8058;0,102135
949,7700;0,103646
950,7343;0,105204
951,6985;0,106808
952,6627;0,108462
953,6270;0,110179
954,5912;0,111972
955,5554;0,113855
956,5197;0,11583
957,4839;0,11789
958,4481;0,120014
959,4124;0,122175
960,3766;0,124348
961,3408;0,12652
962,3051;0,12869
963,2693;0,130871
964,2335;0,133075
965,1978;0,135312
966,1620;0,137584
967,1262;0,139895
968,0905;0,142263
969,0547;0,144725
970,0189;0,147333
970,9832;0,150135
971,9474;0,153166
972,9116;0,156435
973,8759;0,159934
974,8401;0,16365
975,8043;0,167572
976,7686;0,171692
977,7328;0,175998
978,6970;0,180454
979,6613;0,185
980,6255;0,189542
981,5897;0,193968
982,5540;0,198159
983,5182;0,202016
984,4824;0,205476
985,4467;0,208526
986,4109;0,2112
987,3751;0,213562
988,3394;0,215674
989,3036;0,217579
990,2678;0,219284
991,2321;0,220775
992,1963;0,222038
993,1605;0,223076
994,1248;0,223926
995,0890;0,224647
996,0532;0,225301
997,0175;0,225935
997,9817;0,226569
998,9459;0,227208
999,9102;0,227856
1000,8744;0,228541
1001,8386;0,229314
1002,8029;0,230242
1003,7671;0,231387
1004,7313;0,232787
1005,6956;0,234454
1006,6598;0,236381
1007,6240;0,238551
1008,5883;0,240953
1009,5525;0,243572
1010,5167;0,246383
1011,4810;0,249343
1012,4452;0,252388
1013,4094;0,255441
1014,3737;0,258422
1015,3379;0,261263
1016,3021;0,263912
1017,2664;0,266333
1018,2306;0,268511
1019,1948;0,270441
1020,1591;0,272132
1021,1233;0,273605
1022,0875;0,274888
1023,0518;0,276012
1024,0160;0,277005
1024,9802;0,277884
1025,9445;0,278657
1026,9087;0,279314
1027,8729;0,279838
1028,8372;0,280205
1029,8014;0,280374
1030,7656;0,280288
1031,7299;0,279871
1032,6941;0,279049
1033,6583;0,277778
1034,6226;0,27607
1035,5868;0,274013
1036,5510;0,271762
1037,5153;0,269498
1038,4795;0,267392
1039,4437;0,265566
1040,4080;0,264081
1041,3722;0,26294
1042,3364;0,262099
1043,3007;0,261478
1044,2649;0,260983
1045,2291;0,260516
1046,1934;0,259991
1047,1576;0,259345
1048,1218;0,258536
1049,0861;0,257533
1050,0503;0,256307
1051,0145;0,254821
1051,9788;0,25305
1052,9430;0,250991
1053,9072;0,248675
1054,8715;0,246156
1055,8357;0,243482
1056,7999;0,240673
1057,7642;0,237702
1058,7284;0,23452
1059,6926;0,231086
1060,6569;0,227404
1061,6211;0,223544
1062,5853;0,219624
1063,5496;0,215787
1064,5138;0,21215
1065,4780;0,208786
1066,4423;0,20571
1067,4065;0,202892
1068,3707;0,20028
1069,3350;0,197816
1070,2992;0,195452
1071,2634;0,19314
1072,2277;0,190838
1073,1919;0,1885
1074,1561;0,186086
1075,1204;0,183568
1076,0846;0,180941
1077,0488;0,178228
1078,0131;0,175479
1078,9773;0,172764
1079,9415;0,170166
1080,9058;0,16776
1081,8700;0,165607
1082,8342;0,163734
1083,7985;0,162136
1084,7627;0,16078
1085,7269;0,159621
1086,6912;0,158617
1087,6554;0,157744
1088,6196;0,156995
1089,5839;0,156373
1090,5481;0,155878
1091,5123;0,155502
1092,4766;0,15523
1093,4408;0,155042
1094,4050;0,154922
1095,3693;0,154858
1096,3335;0,154839
1097,2977;0,15485
1098,2620;0,154873
1099,2262;0,154885
1100,1904;0,154862
1101,1547;0,154787
1102,1189;0,154644
1103,0831;0,154424
1104,0474;0,154124
1105,0116;0,153744
1105,9758;0,153289
1106,9401;0,152765
1107,9043;0,152171
1108,8685;0,151491
1109,8328;0,150698
1110,7970;0,149756
1111,7612;0,148633
1112,7255;0,147321
1113,6897;0,145842
1114,6539;0,144255
1115,6182;0,14264
1116,5824;0,141081
1117,5466;0,139639
1118,5109;0,138332
1119,4751;0,137128
1120,4393;0,135949
1121,4036;0,1347
1122,3678;0,133291
1123,3320;0,13166
1124,2963;0,129789
1125,2605;0,127693
1126,2247;0,125407
1127,1890;0,122974
1128,1532;0,120436
1129,1174;0,117831
1130,0817;0,115201
1131,0459;0,112589
1132,0101;0,110042
1132,9744;0,107607
1133,9386;0,105332
1134,9028;0,103264
1135,8671;0,101446
1136,8313;0,0999128
1137,7955;0,0986823
1138,7598;0,0977525
1139,7240;0,0971031
1140,6882;0,0967024
1141,6525;0,0965165
1142,6167;0,0965157
1143,5809;0,0966757
1144,5452;0,0969753
1145,5094;0,0973924
1146,4736;0,097903
1147,4379;0,0984833
1148,4021;0,0991129
1149,3663;0,0997758
1150,3306;0,100457
1151,2948;0,101136
1152,2590;0,101782
1153,2233;0,102352
1154,1875;0,102799
1155,1517;0,103072
1156,1160;0,103126
1157,0802;0,102917
1158,0444;0,102398
1159,0087;0,101517
1159,9729;0,100223
1160,9371;0,0984751
1161,9014;0,0962596
1162,8656;0,0936029
1163,8298;0,0905736
1164,7941;0,0872747
1165,7583;0,083829
1166,7225;0,0803625
1167,6868;0,0769893
1168,6510;0,0738
1169,6152;0,0708557
1170,5795;0,0681871
1171,5437;0,0658004
1172,5079;0,0636862
1173,4722;0,0618285
1174,4364;0,0602094
1175,4006;0,0588098
1176,3649;0,0576085
1177,3291;0,0565817
1178,2933;0,055707
1179,2576;0,0549669
1180,2218;0,0543496
1181,1860;0,0538478
1182,1503;0,0534533
1183,1145;0,0531556
1184,0787;0,0529428
1185,0430;0,052806
1186,0072;0,0527431
1186,9714;0,0527589
1187,9357;0,0528626
1188,8999;0,053063
1189,8641;0,0533657
1190,8284;0,0537719
1191,7926;0,0542793
1192,7568;0,0548815
1193,7211;0,0555682
1194,6853;0,0563249
1195,6495;0,0571339
1196,6138;0,0579766
1197,5780;0,0588346
1198,5422;0,0596918
1199,5065;0,0604662
1200,4707;0,0612918
1201,4349;0,0620864
1202,3992;0,0628475
1203,3634;0,0635754
1204,3276;0,064271
1205,2919;0,0649355
1206,2561;0,0655729
1207,2203;0,0661945
1208,1846;0,0668218
1209,1488;0,0674852
1210,1130;0,0682158
1211,0773;0,069036
1212,0415;0,0699518
1213,0057;0,0709537
1213,9700;0,0720225
1214,9342;0,0731382
1215,8984;0,0742845
1216,8627;0,0754477
1217,8269;0,0766135
1218,7911;0,0777653
1219,7554;0,078885
1220,7196;0,0799564
1221,6838;0,0809687
1222,6481;0,081917
1223,6123;0,082801
1224,5765;0,0836228
1225,5408;0,0843854
1226,5050;0,0850925
1227,4692;0,0857479
1228,4335;0,0863547
1229,3977;0,0869143
1230,3619;0,0874248
1231,3262;0,0878809
1232,2904;0,0882757
1233,2546;0,0886035
1234,2189;0,0888631
1235,1831;0,0890596
1236,1473;0,0892037
1237,1116;0,0893081
1238,0758;0,0893827
1239,0400;0,0894307
1240,0043;0,0894482
1240,9685;0,0894268
1241,9327;0,0893568
1242,8970;0,0892308
1243,8612;0,0890445
1244,8254;0,0887976
1245,7897;0,0884939
1246,7539;0,0881426
1247,7181;0,0877582
1248,6824;0,0873566
1249,6466;0,0869505
1250,6108;0,0865449
1251,5751;0,086138
1252,5393;0,0857255
1253,5035;0,0853063
1254,4678;0,0848846
1255,4320;0,0844655
1256,3962;0,0840489
1257,3605;0,0836258
1258,3247;0,0831813
1259,2889;0,0827015
1260,2532;0,0821801
1261,2174;0,0816193
1262,1816;0,0810241
1263,1459;0,0803955
1264,1101;0,0797275
1265,0743;0,0790113
1266,0386;0,0782403
1267,0028;0,0774143
1267,9670;0,076539
1268,9313;0,0756225
1269,8955;0,0746723
1270,8597;0,0736954
1271,8240;0,0726996
1272,7882;0,0716956
1273,7524;0,0706973
1274,7167;0,0697196
1275,6809;0,0687758
1276,6451;0,0678741
1277,6094;0,067015
1278,5736;0,0661918
1279,5378;0,0653934
1280,5021;0,0646099
1281,4663;0,0638382
1282,4305;0,0630844
1283,3948;0,062361
1284,3590;0,0616822
1285,3232;0,0610606
1286,2875;0,060506
1287,2517;0,0600266
1288,2159;0,0596296
1289,1802;0,05932
1290,1444;0,0590978
1291,1086;0,0589572
1292,0729;0,0588889
1293,0371;0,0588848
1294,0013;0,0589418
1294,9656;0,0590631
1295,9298;0,0592553
1296,8940;0,0595243
1297,8583;0,0598722
1298,8225;0,060296
1299,7867;0,0607876
1300,7510;0,0613357
1301,7152;0,0619294
1302,6794;0,0625599
1303,6437;0,0632234
1304,6079;0,0639217
1305,5721;0,0646596
1306,5364;0,0654404
1307,5006;0,0662636
1308,4648;0,0671237
1309,4291;0,0680116
1310,3933;0,068914
1311,3575;0,0698114
1312,3218;0,0706755
1313,2860;0,0714709
1314,2502;0,0721602
1315,2145;0,0727108
1316,1787;0,0730985
1317,1429;0,0733109
1318,1072;0,0733512
1319,0714;0,073242
1320,0356;0,0730247
1320,9999;0,0727484
1321,9641;0,0724565
1322,9283;0,0721772
1323,8926;0,0719239
1324,8568;0,0716997
1325,8210;0,0715031
1326,7853;0,0713295
1327,7495;0,0711706
1328,7137;0,0710137
1329,6780;0,0708419
1330,6422;0,0706378
1331,6064;0,0703886
1332,5707;0,0700888
1333,5349;0,0697396
1334,4991;0,069342
1335,4634;0,0688902
1336,4276;0,0683699
1337,3918;0,0677655
1338,3561;0,0670781
1339,3203;0,0663426
1340,2845;0,0656234
1341,2488;0,0649821
1342,2130;0,0644486
1343,1772;0,06402
1344,1415;0,0636803
1345,1057;0,0634173
1346,0699;0,0632294
1347,0342;0,0631226
1347,9984;0,0631055
1348,9626;0,0631839
1349,9269;0,0633575
1350,8911;0,0636182
1351,8553;0,0639529
1352,8196;0,0643488
1353,7838;0,064797
1354,7480;0,0652932
1355,7123;0,0658333
1356,6765;0,0664085
1357,6407;0,0670061
1358,6050;0,0676151
1359,5692;0,06823
1360,5334;0,0688471
1361,4977;0,0694551
1362,4619;0,0700341
