TITLE;
DATA TYPE;INFRARED SPECTRUM
ORIGIN;JASCO
OWNER;
DATE;25/03/14
TIME;14:23:45
SPECTROMETER/DATA SYSTEM;
LOCALE;9226
RESOLUTION;
DELTAX;0,964233
XUNITS;1/CM
YUNITS;ABSORBANCE
FIRSTX;  399,1927
LASTX; 4000,6047
NPOINTS;    3736
FIRSTY;     0,19458
MAXY;     0,26160
MINY;     0,01087
XYDATA
399,1927;0,194579
400,1569;0,197497
401,1211;0,199064
402,0854;0,199183
403,0496;0,198274
404,0138;0,196901
404,9781;0,195609
405,9423;0,194806
406,9065;0,194652
407,8708;0,195044
408,8350;0,19573
409,7992;0,196483
410,7635;0,197195
411,7277;0,197868
412,6919;0,198537
413,6562;0,199213
414,6204;0,199892
415,5846;0,200598
416,5489;0,201405
417,5131;0,202382
418,4773;0,203447
419,4416;0,204289
420,4058;0,204627
421,3700;0,204489
422,3343;0,204132
423,2985;0,20383
424,2627;0,203768
425,2270;0,204009
426,1912;0,204498
427,1554;0,205125
428,1197;0,205792
429,0839;0,20644
430,0481;0,207015
431,0124;0,207436
431,9766;0,207605
432,9408;0,207491
433,9051;0,207186
434,8693;0,206877
435,8335;0,206721
436,7978;0,206697
437,7620;0,20659
438,7262;0,206128
439,6905;0,205192
440,6547;0,203943
441,6189;0,202794
442,5832;0,202211
443,5474;0,202394
444,5116;0,2031
445,4759;0,203785
446,4401;0,203956
447,4043;0,203452
448,3686;0,20247
449,3328;0,201407
450,2970;0,200631
451,2613;0,200312
452,2255;0,200371
453,1897;0,200587
454,1540;0,200752
455,1182;0,200775
456,0824;0,200696
457,0467;0,200605
458,0109;0,20055
458,9751;0,200481
459,9394;0,200297
460,9036;0,199943
461,8678;0,199445
462,8321;0,198892
463,7963;0,198388
464,7605;0,198015
465,7248;0,197814
466,6890;0,197784
467,6532;0,197898
468,6175;0,198121
469,5817;0,198406
470,5459;0,198684
471,5102;0,198861
472,4744;0,198873
473,4386;0,198745
474,4029;0,198599
475,3671;0,198574
476,3313;0,198745
477,2956;0,199074
478,2598;0,199443
479,2240;0,199715
480,1883;0,199809
481,1525;0,199749
482,1167;0,199635
483,0810;0,199593
484,0452;0,199697
485,0094;0,199945
485,9737;0,200271
486,9379;0,20059
487,9021;0,200838
488,8664;0,200987
489,8306;0,201042
490,7948;0,201051
491,7591;0,201092
492,7233;0,201235
493,6875;0,201483
494,6518;0,201759
495,6160;0,20194
496,5802;0,201942
497,5445;0,20178
498,5087;0,201566
499,4729;0,201446
500,4372;0,201518
501,4014;0,201771
502,3656;0,202109
503,3299;0,202437
504,2941;0,202733
505,2583;0,203039
506,2226;0,203388
507,1868;0,203744
508,1510;0,204014
509,1153;0,20413
510,0795;0,204128
511,0437;0,204152
512,0080;0,20437
512,9722;0,204873
513,9365;0,205624
514,9007;0,206484
515,8649;0,207283
516,8292;0,207912
517,7934;0,20836
518,7576;0,208693
519,7219;0,20898
520,6861;0,209236
521,6503;0,209421
522,6146;0,209482
523,5788;0,209391
524,5430;0,209175
525,5073;0,208907
526,4715;0,20867
527,4357;0,208502
528,4000;0,208361
529,3642;0,208154
530,3284;0,207791
531,2927;0,207239
532,2569;0,206549
533,2211;0,205832
534,1854;0,205205
535,1496;0,204723
536,1138;0,204357
537,0781;0,204031
538,0423;0,203681
539,0065;0,203309
539,9708;0,20298
540,9350;0,202775
541,8992;0,202736
542,8635;0,202839
543,8277;0,203009
544,7919;0,203167
545,7562;0,203273
546,7204;0,203338
547,6846;0,203406
548,6489;0,203517
549,6131;0,203686
550,5773;0,203912
551,5416;0,204202
552,5058;0,204583
553,4700;0,205083
554,4343;0,205694
555,3985;0,206343
556,3627;0,206894
557,3270;0,207191
558,2912;0,20712
559,2554;0,20665
560,2197;0,205844
561,1839;0,204834
562,1481;0,203775
563,1124;0,2028
564,0766;0,201994
565,0408;0,201373
566,0051;0,200889
566,9693;0,200459
567,9335;0,200002
568,8978;0,199482
569,8620;0,198923
570,8262;0,198388
571,7905;0,197932
572,7547;0,197565
573,7189;0,197244
574,6832;0,196903
575,6474;0,196492
576,6116;0,196012
577,5759;0,195508
578,5401;0,195036
579,5043;0,194629
580,4686;0,19428
581,4328;0,193959
582,3970;0,19364
583,3613;0,193317
584,3255;0,193006
585,2897;0,192734
586,2540;0,192524
587,2182;0,192389
588,1824;0,192327
589,1467;0,192322
590,1109;0,192339
591,0751;0,192327
592,0394;0,192236
593,0036;0,192045
593,9678;0,191769
594,9321;0,191451
595,8963;0,191127
596,8605;0,1908
597,8248;0,190446
598,7890;0,190034
599,7532;0,18956
600,7175;0,189063
601,6817;0,188598
602,6459;0,188203
603,6102;0,187874
604,5744;0,187567
605,5386;0,187224
606,5029;0,186795
607,4671;0,186254
608,4313;0,185595
609,3956;0,18483
610,3598;0,184003
611,3240;0,183186
612,2883;0,182464
613,2525;0,181897
614,2167;0,181479
615,1810;0,181115
616,1452;0,180649
617,1094;0,17993
618,0737;0,178892
619,0379;0,177578
620,0021;0,176105
620,9664;0,174586
621,9306;0,173097
622,8948;0,171682
623,8591;0,170375
624,8233;0,169193
625,7875;0,168228
626,7518;0,167486
627,7160;0,166924
628,6802;0,166462
629,6445;0,166021
630,6087;0,16555
631,5729;0,165035
632,5372;0,164494
633,5014;0,163949
634,4656;0,16342
635,4299;0,162915
636,3941;0,162442
637,3583;0,162009
638,3226;0,16162
639,2868;0,161276
640,2510;0,160964
641,2153;0,160666
642,1795;0,160368
643,1437;0,160071
644,1080;0,159788
645,0722;0,159531
646,0364;0,159297
647,0007;0,159058
647,9649;0,158777
648,9291;0,158433
649,8934;0,158046
650,8576;0,157673
651,8218;0,157386
652,7861;0,157229
653,7503;0,157203
654,7145;0,157271
655,6788;0,15738
656,6430;0,157491
657,6072;0,157593
658,5715;0,157686
659,5357;0,15775
660,4999;0,157728
661,4642;0,157528
662,4284;0,157062
663,3926;0,156275
664,3569;0,155185
665,3211;0,153962
666,2853;0,152959
667,2496;0,152529
668,2138;0,152529
669,1780;0,15236
670,1423;0,151817
671,1065;0,151057
672,0707;0,150088
673,0350;0,148834
673,9992;0,14731
674,9634;0,145638
675,9277;0,143965
676,8919;0,142378
677,8561;0,140888
678,8204;0,139471
679,7846;0,138124
680,7488;0,136877
681,7131;0,135758
682,6773;0,134765
683,6415;0,133864
684,6058;0,133023
685,5700;0,132233
686,5342;0,131511
687,4985;0,130868
688,4627;0,130304
689,4269;0,129787
690,3912;0,129286
691,3554;0,128786
692,3196;0,128288
693,2839;0,127797
694,2481;0,12731
695,2123;0,126816
696,1766;0,126304
697,1408;0,125778
698,1050;0,125256
699,0693;0,124761
700,0335;0,124313
700,9977;0,123907
701,9620;0,123517
702,9262;0,123103
703,8904;0,122624
704,8547;0,12207
705,8189;0,121462
706,7831;0,12084
707,7474;0,120243
708,7116;0,119686
709,6758;0,119161
710,6401;0,118632
711,6043;0,118061
712,5685;0,117422
713,5328;0,116721
714,4970;0,115997
715,4612;0,114735
716,4255;0,114246
717,3897;0,113884
718,3539;0,113564
719,3182;0,113144
720,2824;0,112496
721,2466;0,111577
722,2109;0,110449
723,1751;0,109245
724,1393;0,108091
725,1036;0,107063
726,0678;0,106181
727,0320;0,105427
727,9963;0,104761
728,9605;0,104141
729,9247;0,103531
730,8890;0,102902
731,8532;0,102245
732,8174;0,101573
733,7817;0,100919
734,7459;0,100319
735,7101;0,0997983
736,6744;0,0993525
737,6386;0,0989549
738,6028;0,09857
739,5671;0,0981692
740,5313;0,0977407
741,4955;0,0972884
742,4598;0,0968246
743,4240;0,0963623
744,3882;0,0959098
745,3525;0,0954692
746,3167;0,0950373
747,2809;0,0946075
748,2452;0,0941734
749,2094;0,0937334
750,1736;0,0932926
751,1379;0,092861
752,1021;0,0924486
753,0663;0,092059
754,0306;0,0916872
754,9948;0,0913227
755,9590;0,090956
756,9233;0,0905824
757,8875;0,0902035
758,8517;0,089822
759,8160;0,0894385
760,7802;0,0890499
761,7444;0,0886524
762,7087;0,0882445
763,6729;0,0878289
764,6371;0,0874092
765,6014;0,0869868
766,5656;0,0865593
767,5298;0,0861225
768,4941;0,0856747
769,4583;0,0852197
770,4225;0,0847662
771,3868;0,0843252
772,3510;0,083905
773,3152;0,0835095
774,2795;0,0831381
775,2437;0,0827868
776,2079;0,0824511
777,1722;0,0821256
778,1364;0,0818038
779,1006;0,0814753
780,0649;0,0811259
781,0291;0,0807404
781,9933;0,0803104
782,9576;0,0798426
783,9218;0,0793621
784,8860;0,0789053
785,8503;0,0785048
786,8145;0,0781734
787,7787;0,0778978
788,7430;0,0776479
789,7072;0,0773966
790,6714;0,0771363
791,6357;0,0768824
792,5999;0,0766596
793,5641;0,0764823
794,5284;0,0763434
795,4926;0,0762188
796,4568;0,0760832
797,4211;0,0759244
798,3853;0,0757459
799,3495;0,0755563
800,3138;0,0753577
801,2780;0,075143
802,2422;0,0749038
803,2065;0,0746418
804,1707;0,0743736
805,1349;0,074125
806,0992;0,0739181
807,0634;0,0737617
808,0276;0,073649
808,9919;0,073563
809,9561;0,0734843
810,9203;0,0733969
811,8846;0,0732922
812,8488;0,0731707
813,8130;0,0730416
814,7773;0,0729182
815,7415;0,0728104
816,7057;0,0727173
817,6700;0,072627
818,6342;0,0725239
819,5984;0,0724008
820,5627;0,0722662
821,5269;0,0721421
822,4911;0,0720518
823,4554;0,0720072
824,4196;0,072004
825,3839;0,072027
826,3481;0,0720605
827,3123;0,072095
828,2766;0,0721253
829,2408;0,0721436
830,2050;0,0721347
831,1693;0,0720788
832,1335;0,0719612
833,0977;0,0717818
834,0620;0,0715568
835,0262;0,071312
835,9904;0,071071
836,9547;0,0708471
837,9189;0,0706427
838,8831;0,0704538
839,8474;0,0702757
840,8116;0,0701054
841,7758;0,0699416
842,7401;0,0697832
843,7043;0,0696303
844,6685;0,0694853
845,6328;0,0693534
846,5970;0,0692399
847,5612;0,0691462
848,5255;0,0690682
849,4897;0,0689982
850,4539;0,0689297
851,4182;0,0688617
852,3824;0,0687988
853,3466;0,0687488
854,3109;0,0687177
855,2751;0,0687075
856,2393;0,0687152
857,2036;0,0687348
858,1678;0,0687595
859,1320;0,0687837
860,0963;0,0688044
861,0605;0,0688223
862,0247;0,0688419
862,9890;0,06887
863,9532;0,068913
864,9174;0,0689744
865,8817;0,069053
866,8459;0,069143
867,8101;0,0692363
868,7744;0,069326
869,7386;0,0694086
870,7028;0,0694849
871,6671;0,0695572
872,6313;0,0696244
873,5955;0,0696792
874,5598;0,0697098
875,5240;0,0697071
876,4882;0,0696737
877,4525;0,0696281
878,4167;0,0696011
879,3809;0,0696247
880,3452;0,0697208
881,3094;0,069897
882,2736;0,0701515
883,2379;0,070484
884,2021;0,070903
885,1663;0,0714262
886,1306;0,0720707
887,0948;0,0728426
888,0590;0,0737304
889,0233;0,0747056
889,9875;0,0757293
890,9517;0,0767601
891,9160;0,0777582
892,8802;0,0786871
893,8444;0,0795132
894,8087;0,0802071
895,7729;0,0807456
896,7371;0,0811142
897,7014;0,0813086
898,6656;0,081333
899,6298;0,0811976
900,5941;0,0809167
901,5583;0,0805088
902,5225;0,0799987
903,4868;0,0794196
904,4510;0,0788128
905,4152;0,078224
906,3795;0,077696
907,3437;0,0772616
908,3079;0,0769389
909,2722;0,076732
910,2364;0,076635
911,2007;0,0766372
912,1649;0,076727
913,1292;0,0768937
914,0934;0,0771273
915,0576;0,0774173
916,0219;0,0777526
916,9861;0,0781218
917,9503;0,0785149
918,9146;0,0789243
919,8788;0,0793454
920,8430;0,0797745
921,8073;0,080206
922,7715;0,080629
923,7357;0,0810277
924,7000;0,0813852
925,6642;0,0816902
926,6284;0,0819418
927,5927;0,0821485
928,5569;0,0823232
929,5211;0,0824762
930,4854;0,082613
931,4496;0,0827369
932,4138;0,0828547
933,3781;0,0829801
934,3423;0,0831306
935,3065;0,0833213
936,2708;0,0835596
937,2350;0,0838463
938,1992;0,0841813
939,1635;0,0845699
940,1277;0,085023
941,0919;0,0855526
942,0562;0,086164
943,0204;0,0868542
943,9846;0,0876147
944,9489;0,0884406
945,9131;0,0893361
946,8773;0,0903145
947,8416;0,0913913
948,8058;0,0925761
949,7700;0,0938672
950,7343;0,0952547
951,6985;0,0967273
952,6627;0,0982802
953,6270;0,0999186
954,5912;0,101654
955,5554;0,103494
956,5197;0,105439
957,4839;0,10747
958,4481;0,10956
959,4124;0,11168
960,3766;0,113811
961,3408;0,115946
962,3051;0,118093
963,2693;0,120262
964,2335;0,122462
965,1978;0,124698
966,1620;0,126969
967,1262;0,129283
968,0905;0,131654
969,0547;0,134111
970,0189;0,13669
970,9832;0,139425
971,9474;0,142342
972,9116;0,145457
973,8759;0,148781
974,8401;0,152321
975,8043;0,156089
976,7686;0,160089
977,7328;0,164307
978,6970;0,168703
979,6613;0,173196
980,6255;0,177674
981,5897;0,182014
982,5540;0,186099
983,5182;0,189847
984,4824;0,193215
985,4467;0,196202
986,4109;0,198833
987,3751;0,201146
988,3394;0,203179
989,3036;0,204959
990,2678;0,206503
991,2321;0,207818
992,1963;0,208914
993,1605;0,209805
994,1248;0,210525
995,0890;0,211122
996,0532;0,211656
997,0175;0,212177
997,9817;0,212724
998,9459;0,213312
999,9102;0,213942
1000,8744;0,214615
1001,8386;0,215344
1002,8029;0,216158
1003,7671;0,217103
1004,7313;0,218228
1005,6956;0,219575
1006,6598;0,22117
1007,6240;0,223021
1008,5883;0,225123
1009,5525;0,227457
1010,5167;0,229993
1011,4810;0,232688
1012,4452;0,235477
1013,4094;0,238282
1014,3737;0,241019
1015,3379;0,243611
1016,3021;0,246005
1017,2664;0,248175
1018,2306;0,25012
1019,1948;0,25185
1020,1591;0,253381
1021,1233;0,254732
1022,0875;0,255924
1023,0518;0,256985
1024,0160;0,257946
1024,9802;0,258831
1025,9445;0,259647
1026,9087;0,260378
1027,8729;0,260983
1028,8372;0,261411
1029,8014;0,261601
1030,7656;0,261489
1031,7299;0,26102
1032,6941;0,260152
1033,6583;0,258874
1034,6226;0,257219
1035,5868;0,255271
1036,5510;0,253153
1037,5153;0,25101
1038,4795;0,248976
1039,4437;0,247153
1040,4080;0,245592
1041,3722;0,2443
1042,3364;0,243244
1043,3007;0,242369
1044,2649;0,241606
1045,2291;0,240887
1046,1934;0,240146
1047,1576;0,239324
1048,1218;0,238367
1049,0861;0,237226
1050,0503;0,235863
1051,0145;0,234252
1051,9788;0,23239
1052,9430;0,230297
1053,9072;0,228013
1054,8715;0,225578
1055,8357;0,223013
1056,7999;0,220308
1057,7642;0,217423
1058,7284;0,214308
1059,6926;0,210938
1060,6569;0,207337
1061,6211;0,203588
1062,5853;0,199814
1063,5496;0,19615
1064,5138;0,192708
1065,4780;0,189556
1066,4423;0,186718
1067,4065;0,184183
1068,3707;0,181911
1069,3350;0,179852
1070,2992;0,177949
1071,2634;0,176142
1072,2277;0,174375
1073,1919;0,172593
1074,1561;0,170748
1075,1204;0,168804
1076,0846;0,16674
1077,0488;0,164557
1078,0131;0,162289
1078,9773;0,159991
1079,9415;0,157737
1080,9058;0,155594
1081,8700;0,153611
1082,8342;0,151808
1083,7985;0,150181
1084,7627;0,14871
1085,7269;0,147372
1086,6912;0,146152
1087,6554;0,145047
1088,6196;0,144066
1089,5839;0,143225
1090,5481;0,142541
1091,5123;0,142019
1092,4766;0,141652
1093,4408;0,141417
1094,4050;0,141285
1095,3693;0,141227
1096,3335;0,141224
1097,2977;0,141267
1098,2620;0,141354
1099,2262;0,141478
1100,1904;0,14162
1101,1547;0,14175
1102,1189;0,141827
1103,0831;0,141813
1104,0474;0,14168
1105,0116;0,141418
1105,9758;0,141035
1106,9401;0,140544
1107,9043;0,139957
1108,8685;0,139272
1109,8328;0,13847
1110,7970;0,137527
1111,7612;0,136424
1112,7255;0,135163
1113,6897;0,133775
1114,6539;0,132318
1115,6182;0,130864
1116,5824;0,129483
1117,5466;0,12822
1118,5109;0,127085
1119,4751;0,12605
1120,4393;0,125053
1121,4036;0,124014
1122,3678;0,122855
1123,3320;0,121512
1124,2963;0,119954
1125,2605;0,118179
1126,2247;0,116211
1127,1890;0,114093
1128,1532;0,111873
1129,1174;0,109597
1130,0817;0,10731
1131,0459;0,105047
1132,0101;0,102841
1132,9744;0,100725
1133,9386;0,098734
1134,9028;0,0969075
1135,8671;0,0952878
1136,8313;0,0939121
1137,7955;0,0928052
1138,7598;0,0919725
1139,7240;0,0913996
1140,6882;0,0910554
1141,6525;0,0909005
1142,6167;0,0908954
1143,5809;0,0910066
1144,5452;0,0912094
1145,5094;0,0914878
1146,4736;0,0918327
1147,4379;0,0922392
1148,4021;0,0927042
1149,3663;0,0932227
1150,3306;0,0937841
1151,2948;0,0943671
1152,2590;0,0949382
1153,2233;0,095452
1154,1875;0,0958562
1155,1517;0,096098
1156,1160;0,0961294
1157,0802;0,0959086
1158,0444;0,0953983
1159,0087;0,0945617
1159,9729;0,0933629
1160,9371;0,0917719
1161,9014;0,0897764
1162,8656;0,0873932
1163,8298;0,0846741
1164,7941;0,0817036
1165,7583;0,0785879
1166,7225;0,075439
1167,6868;0,0723603
1168,6510;0,0694352
1169,6152;0,0667216
1170,5795;0,0642512
1171,5437;0,0620336
1172,5079;0,0600635
1173,4722;0,0583271
1174,4364;0,0568081
1175,4006;0,0554889
1176,3649;0,0543509
1177,3291;0,0533745
1178,2933;0,0525399
1179,2576;0,0518301
1180,2218;0,051232
1181,1860;0,0507366
1182,1503;0,0503364
1183,1145;0,0500237
1184,0787;0,04979
1185,0430;0,0496289
1186,0072;0,049539
1186,9714;0,0495248
1187,9357;0,0495955
1188,8999;0,04976
1189,8641;0,050023
1190,8284;0,0503835
1191,7926;0,050836
1192,7568;0,0513735
1193,7211;0,0519893
1194,6853;0,0526767
1195,6495;0,0534267
1196,6138;0,0542259
1197,5780;0,0550573
1198,5422;0,055903
1199,5065;0,0565741
1200,4707;0,0574321
1201,4349;0,0582819
1202,3992;0,0591255
1203,3634;0,059966
1204,3276;0,0608047
1205,2919;0,0616418
1206,2561;0,0624785
1207,2203;0,0633208
1208,1846;0,06418
1209,1488;0,0650717
1210,1130;0,0660112
1211,0773;0,0670097
1212,0415;0,0680711
1213,0057;0,0691919
1213,9700;0,0703635
1214,9342;0,071574
1215,8984;0,0728094
1216,8627;0,0740523
1217,8269;0,0752818
1218,7911;0,0764782
1219,7554;0,0776259
1220,7196;0,0787169
1221,6838;0,0797514
1222,6481;0,080734
1223,6123;0,0816694
1224,5765;0,0825588
1225,5408;0,0834
1226,5050;0,0841893
1227,4692;0,0849241
1228,4335;0,0856036
1229,3977;0,0862272
1230,3619;0,0867932
1231,3262;0,0872983
1232,2904;0,0877393
1233,2546;0,0881146
1234,2189;0,0884244
1235,1831;0,0886702
1236,1473;0,0888544
1237,1116;0,0889803
1238,0758;0,0890528
1239,0400;0,0890785
1240,0043;0,089063
1240,9685;0,0890077
1241,9327;0,0889074
1242,8970;0,0887514
1243,8612;0,0885278
1244,8254;0,0882289
1245,7897;0,0878552
1246,7539;0,0874164
1247,7181;0,0869277
1248,6824;0,0864058
1249,6466;0,0858642
1250,6108;0,0853108
1251,5751;0,0847491
1252,5393;0,0841803
1253,5035;0,0836061
1254,4678;0,0830287
1255,4320;0,0824481
1256,3962;0,0818592
1257,3605;0,0812504
1258,3247;0,0806072
1259,2889;0,0799185
1260,2532;0,0791819
1261,2174;0,0784036
1262,1816;0,0775936
1263,1459;0,0767581
1264,1101;0,0758964
1265,0743;0,0750023
1266,0386;0,0740685
1267,0028;0,0730913
1267,9670;0,0720718
1268,9313;0,0710156
1269,8955;0,0699318
1270,8597;0,0688321
1271,8240;0,0677301
1272,7882;0,0666387
1273,7524;0,0655683
1274,7167;0,064526
1275,6809;0,0635172
1276,6451;0,0625469
1277,6094;0,061619
1278,5736;0,0607344
1279,5378;0,0598887
1280,5021;0,0590737
1281,4663;0,0582822
1282,4305;0,0575135
1283,3948;0,0567755
1284,3590;0,0560818
1285,3232;0,0554462
1286,2875;0,0548781
1287,2517;0,0543815
1288,2159;0,0539571
1289,1802;0,0536061
1290,1444;0,0533302
1291,1086;0,0531309
1292,0729;0,0530075
1293,0371;0,052957
1294,0013;0,0529759
1294,9656;0,0530626
1295,9298;0,0532178
1296,8940;0,0534435
1297,8583;0,0537406
1298,8225;0,0541072
1299,7867;0,0545385
1300,7510;0,0550274
1301,7152;0,055569
1302,6794;0,0561583
1303,6437;0,0567901
1304,6079;0,0574598
1305,5721;0,0581611
1306,5364;0,0588874
1307,5006;0,0596342
1308,4648;0,0604011
1309,4291;0,0611902
1310,3933;0,0620003
1311,3575;0,0628201
1312,3218;0,0636241
1313,2860;0,0643767
1314,2502;0,0650413
1315,2145;0,0655888
1316,1787;0,0659997
1317,1429;0,0662639
1318,1072;0,0663807
1319,0714;0,0663634
1320,0356;0,0662423
1320,9999;0,0660586
1321,9641;0,0658525
1322,9283;0,0656519
1323,8926;0,0654704
1324,8568;0,0653102
1325,8210;0,0651675
1326,7853;0,0650367
1327,7495;0,0649106
1328,7137;0,0647804
1329,6780;0,0646354
1330,6422;0,0644654
1331,6064;0,0642646
1332,5707;0,064032
1333,5349;0,0637717
1334,4991;0,0634844
1335,4634;0,0631604
1336,4276;0,0627759
1337,3918;0,0622975
1338,3561;0,0617029
1339,3203;0,0610135
1340,2845;0,0603045
1341,2488;0,0596672
1342,2130;0,0591569
1343,1772;0,058777
1344,1415;0,0585024
1345,1057;0,0583069
1346,0699;0,0581767
1347,0342;0,0581107
1347,9984;0,0581164
1348,9626;0,0582037
1349,9269;0,0583781
1350,8911;0,0586359
1351,8553;0,0589655
1352,8196;0,0593531
1353,7838;0,0597902
1354,7480;0,0602766
1355,7123;0,0608156
1356,6765;0,0614061
1357,6407;0,0620391
1358,6050;0,0627017
1359,5692;0,0633823
1360,5334;0,064065
